Potential(V)	Current(uA)
0.19	-0.02697
0.191	-0.01318
0.192	0.01428
0.193	0.02387
0.194	0.02329
0.195	0.03536
0.196	0.04666
0.197	0.05143
0.198	0.06239
0.199	0.07365
0.2	0.07165
0.201	0.07937
0.202	0.08709
0.203	0.08557
0.204	0.09658
0.205	0.1088
0.206	0.1049
0.207	0.1203
0.208	0.1271
0.209	0.1398
0.21	0.1441
0.211	0.1405
0.212	0.1494
0.213	0.1544
0.214	0.1587
0.215	0.1549
0.216	0.1557
0.217	0.1764
0.218	0.1896
0.219	0.186
0.22	0.1993
0.221	0.1928
0.222	0.2008
0.223	0.2069
0.224	0.2155
0.225	0.2238
0.226	0.2261
0.227	0.2339
0.228	0.2431
0.229	0.2425
0.23	0.2492
0.231	0.2623
0.232	0.2591
0.233	0.2698
0.234	0.2757
0.235	0.2789
0.236	0.2885
0.237	0.3012
0.238	0.2982
0.239	0.3068
0.24	0.3079
0.241	0.3166
0.242	0.3136
0.243	0.3308
0.244	0.3329
0.245	0.336
0.246	0.3545
0.247	0.3551
0.248	0.359
0.249	0.3651
0.249	0.3831
0.251	0.381
0.252	0.3876
0.252	0.3894
0.253	0.4026
0.254	0.4141
0.256	0.4028
0.256	0.4126
0.257	0.4211
0.258	0.429
0.259	0.4338
0.26	0.4298
0.261	0.4438
0.262	0.4481
0.263	0.4529
0.264	0.456
0.265	0.4678
0.266	0.4729
0.267	0.4737
0.268	0.4802
0.269	0.4862
0.27	0.489
0.271	0.515
0.272	0.5204
0.273	0.5111
0.274	0.5157
0.275	0.5332
0.276	0.5326
0.277	0.5408
0.278	0.5383
0.279	0.5512
0.28	0.5522
0.281	0.5564
0.282	0.5575
0.283	0.5645
0.284	0.5679
0.285	0.5924
0.286	0.5799
0.287	0.6031
0.288	0.5959
0.289	0.6116
0.29	0.6037
0.291	0.6216
0.292	0.6258
0.293	0.6324
0.294	0.6309
0.295	0.6476
0.296	0.6519
0.297	0.6534
0.298	0.6628
0.299	0.6717
0.3	0.6743
0.301	0.6791
0.302	0.6839
0.303	0.6867
0.304	0.6907
0.305	0.6914
0.306	0.6897
0.307	0.6954
0.308	0.7063
0.309	0.7071
0.31	0.7276
0.311	0.7407
0.312	0.7359
0.313	0.7381
0.314	0.7497
0.315	0.7629
0.316	0.762
0.317	0.7642
0.318	0.7684
0.319	0.7694
0.32	0.7784
0.321	0.7881
0.322	0.7872
0.323	0.7896
0.324	0.7887
0.325	0.7968
0.326	0.8006
0.327	0.8064
0.328	0.8119
0.329	0.817
0.33	0.8344
0.331	0.8295
0.332	0.8371
0.333	0.8383
0.334	0.847
0.335	0.8483
0.336	0.8529
0.337	0.8596
0.338	0.8737
0.339	0.8748
0.34	0.8693
0.341	0.8786
0.342	0.8853
0.343	0.8853
0.344	0.8955
0.345	0.9014
0.346	0.9009
0.347	0.8957
0.348	0.897
0.349	0.9105
0.35	0.9165
0.351	0.9225
0.352	0.9261
0.353	0.9336
0.354	0.9296
0.355	0.9362
0.356	0.9379
0.357	0.9461
0.358	0.9506
0.359	0.9615
0.36	0.9541
0.361	0.9671
0.362	0.9667
0.363	0.9807
0.364	0.9805
0.365	0.9844
0.366	0.9875
0.367	0.9891
0.368	0.9993
0.369	0.9967
0.369	1.006
0.371	1.006
0.372	1.016
0.373	1.012
0.373	1.019
0.374	1.031
0.376	1.022
0.376	1.038
0.377	1.038
0.378	1.044
0.379	1.046
0.38	1.045
0.381	1.043
0.382	1.046
0.383	1.057
0.384	1.052
0.385	1.064
0.386	1.071
0.387	1.077
0.388	1.082
0.389	1.079
0.39	1.084
0.391	1.089
0.392	1.088
0.393	1.094
0.394	1.105
0.395	1.108
0.396	1.097
0.397	1.104
0.398	1.115
0.399	1.126
0.4	1.122
0.401	1.127
0.402	1.13
0.403	1.131
0.404	1.142
0.405	1.154
0.406	1.147
0.407	1.148
0.408	1.149
0.409	1.154
0.41	1.164
0.411	1.163
0.412	1.165
0.413	1.171
0.414	1.166
0.415	1.177
0.416	1.191
0.417	1.186
0.418	1.2
0.419	1.189
0.42	1.201
0.421	1.2
0.422	1.207
0.423	1.211
0.424	1.207
0.425	1.215
0.426	1.231
0.427	1.217
0.428	1.23
0.429	1.226
0.43	1.23
0.431	1.247
0.432	1.251
0.433	1.252
0.434	1.257
0.435	1.256
0.436	1.252
0.437	1.252
0.438	1.262
0.439	1.276
0.44	1.275
0.441	1.282
0.442	1.286
0.443	1.284
0.444	1.285
0.445	1.293
0.446	1.304
0.447	1.301
0.448	1.312
0.449	1.312
0.45	1.316
0.451	1.319
0.452	1.314
0.453	1.326
0.454	1.333
0.455	1.332
0.456	1.333
0.457	1.337
0.458	1.347
0.459	1.345
0.46	1.352
0.461	1.359
0.462	1.357
0.463	1.36
0.464	1.372
0.465	1.375
0.466	1.37
0.467	1.375
0.468	1.387
0.469	1.379
0.47	1.384
0.471	1.389
0.472	1.4
0.473	1.406
0.474	1.404
0.475	1.404
0.476	1.412
0.477	1.425
0.478	1.425
0.479	1.428
0.48	1.427
0.481	1.436
0.482	1.444
0.483	1.446
0.484	1.444
0.485	1.446
0.486	1.456
0.487	1.458
0.488	1.462
0.489	1.466
0.49	1.473
0.491	1.472
0.492	1.483
0.493	1.482
0.493	1.489
0.494	1.482
0.496	1.491
0.496	1.494
0.497	1.496
0.498	1.501
0.499	1.507
0.5	1.517
0.501	1.515
0.502	1.515
0.503	1.519
0.504	1.529
0.505	1.527
0.506	1.531
0.507	1.534
0.508	1.539
0.509	1.54
0.51	1.55
0.511	1.555
0.512	1.561
0.513	1.568
0.514	1.562
0.515	1.568
0.516	1.571
0.517	1.58
0.518	1.586
0.519	1.59
0.52	1.597
0.521	1.595
0.522	1.599
0.523	1.609
0.524	1.616
0.525	1.621
0.526	1.619
0.527	1.628
0.528	1.628
0.529	1.638
0.53	1.64
0.531	1.645
0.532	1.652
0.533	1.659
0.534	1.663
0.535	1.674
0.536	1.68
0.537	1.687
0.538	1.7
0.539	1.699
0.54	1.701
0.541	1.711
0.542	1.711
0.543	1.717
0.544	1.721
0.545	1.725
0.546	1.735
0.547	1.747
0.548	1.752
0.549	1.761
0.55	1.76
0.551	1.773
0.552	1.793
0.553	1.777
0.554	1.77
0.555	1.771
0.556	1.787
0.557	1.79
0.558	1.794
0.559	1.796
0.56	1.81
0.561	1.815
0.562	1.816
0.563	1.819
0.564	1.829
0.565	1.836
0.566	1.847
0.567	1.843
0.568	1.854
0.569	1.866
0.57	1.864
0.571	1.873
0.572	1.883
0.573	1.887
0.574	1.897
0.575	1.907
0.576	1.91
0.577	1.916
0.578	1.915
0.579	1.921
0.58	1.928
0.581	1.939
0.582	1.942
0.583	1.95
0.584	1.955
0.585	1.974
0.586	1.971
0.587	1.974
0.588	1.983
0.589	1.999
0.59	2.009
0.591	2.008
0.592	2.014
0.593	2.031
0.594	2.041
0.595	2.05
0.596	2.072
0.597	2.074
0.598	2.114
0.599	2.146
0.6	2.122
0.601	2.109
0.602	2.119
0.603	2.132
0.604	2.137
0.605	2.151
0.606	2.152
0.607	2.161
0.608	2.168
0.609	2.184
0.61	2.2
0.611	2.235
0.612	2.246
0.613	2.261
0.614	2.286
0.614	2.321
0.616	2.353
0.617	2.403
0.617	2.454
0.618	2.359
0.619	2.284
0.62	2.292
0.621	2.303
0.622	2.313
0.623	2.335
0.624	2.362
0.625	2.369
0.626	2.446
0.627	2.519
0.628	2.555
0.629	2.642
0.63	2.711
0.631	2.532
0.632	2.385
0.633	2.39
0.634	2.408
0.635	2.414
0.636	2.424
0.637	2.48
0.638	2.516
0.639	2.595
0.64	2.648
0.641	2.689
0.642	2.741
0.643	2.877
0.644	3.021
0.645	3.162
0.646	3.335
0.647	2.943
0.648	2.623
0.649	2.651
0.65	2.69
0.651	2.719
0.652	2.748
0.653	2.776
0.654	2.797
0.655	2.847
0.656	2.875
0.657	2.944
0.658	3.234
0.659	3.489
0.66	3.502
0.661	3.751
0.662	4.063
0.663	3.508
0.664	3.08
0.665	3.139
0.666	3.196
0.667	3.258
0.668	3.307
0.669	3.36
0.67	3.409
0.671	3.517
0.672	3.541
0.673	3.604
0.674	3.483
0.675	3.36
0.676	3.426
0.677	3.492
0.678	3.554
0.679	3.608
0.68	3.673
0.681	3.773
0.682	4.037
0.683	4.362
0.684	4.034
0.685	4.304
0.686	4.619
0.687	4.637
0.688	4.568
0.689	4.911
0.69	5.301
0.691	5.629
0.692	5.901
0.693	6.097
0.694	5.192
0.695	5.018
0.696	5.381
0.697	5.92
0.698	7.045
0.699	7.393
0.7	6.3
0.701	5.275
0.702	5.49
0.703	5.204
0.704	5.361
0.705	5.667
0.706	6.028
0.707	6.624
0.708	5.86
0.709	5.267
0.71	5.522
0.711	5.744
0.712	5.861
0.713	6.088
0.714	6.212
0.715	6.564
0.716	6.853
0.717	7.412
0.718	7.818
0.719	7.278
0.72	7.799
0.721	8.289
0.722	8.762
0.723	9.257
0.724	9.795
0.725	10.31
0.726	11.02
0.727	11.31
0.728	11.91
0.729	12.77
0.73	13.45
0.731	14.38
0.732	15.01
0.733	15.44
0.734	14.47
0.734	15.12
0.736	15.94
0.737	15.86
0.737	16.75
0.738	17.78
0.739	18.72
0.741	19.66
0.741	20.84
0.742	21.39
0.743	22.26
0.744	23.21
0.745	24.05
0.746	24.65
0.747	25.73
0.748	26.95
0.749	27.78
0.75	28.68
0.751	29.19
0.752	30.13
0.753	31.26
0.754	32.32
0.755	33.01
0.756	34.41
0.757	36.04
0.758	37.07
0.759	38.33
0.76	39.48
0.761	40.41
0.762	42.31
0.763	44.06
0.764	45.87
0.765	47.85
0.766	48.86
0.767	50.6
0.768	53.1
0.769	54.73
0.77	56.24
0.771	58.2
0.772	60.18
0.773	61.76
0.774	63.6
0.775	66.18
0.776	69.1
0.777	71.5
0.778	72.11
0.779	69.71
0.78	72.6
0.781	76
0.782	78.11
0.783	79.67
0.784	80.85
0.785	83.29
0.786	86.11
0.787	87.48
0.788	90
0.789	91.21
0.79	91.55
0.791	94.21
0.792	95.77
0.793	96.82
0.794	97.34
0.795	97.95
0.796	100.4
0.797	101.1
0.798	104.1
0.799	107.4
0.8	111
0.801	112.4
0.802	115.2
0.803	118
0.804	119.8
0.805	121.7
0.806	124.7
0.807	127.1
0.808	129.7
0.809	134
0.81	137.6
0.811	139.4
0.812	141.2
0.813	143.5
0.814	146.9
0.815	150.2
0.816	153.4
0.817	155.6
0.818	157.4
0.819	159.1
0.82	163
0.821	166.3
0.822	169.2
0.823	170.2
0.824	174
0.825	177.4
0.826	178.4
0.827	181.8
0.828	187.3
0.829	190
0.83	191.3
0.831	192.3
0.832	196
0.833	201.6
0.834	204.6
0.835	207.6
0.836	210.4
0.837	212.5
0.838	214.9
0.839	217.3
0.84	219.9
0.841	222.1
0.842	225.3
0.843	232.1
0.844	236.9
0.845	236.9
0.846	241.6
0.847	243.1
0.848	247.2
0.849	252.5
0.85	256.2
0.851	256.6
0.852	259.7
0.853	264.1
0.854	269.1
0.855	273.4
0.856	273.1
0.857	275
0.858	276.4
0.858	281.1
0.859	283.5
0.861	284.8
0.861	290.5
0.862	296.6
0.863	301.8
0.864	303.1
0.865	304
0.866	305.1
0.867	310.7
0.868	315
0.869	321.3
0.87	320.9
0.871	319.9
0.872	323.6
0.873	327.8
0.874	330.4
0.875	331.7
0.876	337
0.877	341.9
0.878	345.4
0.879	348.1
0.88	352.7
0.881	354.7
0.882	360.1
0.883	364.5
0.884	366.9
0.885	368.4
0.886	373.6
0.887	377.7
0.888	383.7
0.889	389.7
0.89	392.2
0.891	393.1
0.892	395.9
0.893	402.6
0.894	408.4
0.895	409.9
0.896	413
0.897	418.9
0.898	425.4
0.899	427.3
0.9	428.6
0.901	433.8
0.902	440.4
0.903	445.8
0.904	446.4
0.905	448.8
0.906	453.2
0.907	461.5
0.908	471.6
0.909	474.2
0.91	473.6
0.911	473.5
0.912	478.4
0.913	483.5
0.914	492.7
0.915	500.8
0.916	504.8
0.917	507
0.918	509.8
0.919	507.1
0.92	506.7
0.921	512
0.922	514.2
0.923	514.7
0.924	520.8
0.925	522.2
0.926	517.9
0.927	521.8
0.928	524.8
0.929	531.1
0.93	549.7
0.931	561.2
0.932	561
0.933	553.7
0.934	551.3
0.935	563.2
0.936	576.1
0.937	584.3
0.938	589.3
0.939	587.2
0.94	581.6
0.941	581.3
0.942	584.1
0.943	596.2
0.944	607
0.945	614.6
0.946	611
0.947	608.1
0.948	613.7
0.949	622.5
0.95	632.4
0.951	639.2
0.952	644.6
0.953	644.7
0.954	640
0.955	650.4
0.956	657
0.957	663
0.958	672.7
0.959	675
0.96	676.8
0.961	680.7
0.962	685.9
0.963	691.6
0.964	690.6
0.965	694.5
0.966	697.8
0.967	700.1
0.968	709.7
0.969	719
0.97	728.1
0.971	735.6
0.972	733.4
0.973	726.8
0.974	732.1
0.975	738.4
0.976	752.6
0.977	758.2
0.978	761.4
0.978	756.3
0.979	750.4
0.981	756.7
0.982	769.2
0.982	777.5
0.983	786.4
0.984	794
0.985	793.2
0.986	791.1
0.987	793.4
0.988	799.8
0.989	811.5
0.99	817.2
0.991	825.3
0.992	832.9
0.993	837
0.994	834.7
0.995	830.9
0.996	832.8
0.997	845.5
0.998	859.1
0.999	871.5
1	874.7
1.001	866
1.002	866.3
1.003	874.7
1.004	886.7
1.005	891.8
1.006	898
1.007	896.5
1.008	898.6
1.009	905.3
1.01	917
1.011	923.7
1.012	925.2
1.013	926.4
1.014	934.4
1.015	947.6
1.016	945.1
1.017	941.8
1.018	946.7
1.019	955.8
1.02	976.8
1.021	991.8
1.022	989.4
1.023	976.9
1.024	974.2
1.025	982.9
1.026	1004
1.027	1012
1.028	1012
1.029	1013
1.03	1021
1.031	1035
1.032	1044
1.033	1047
1.034	1047
1.035	1045
1.036	1051
1.037	1063
1.038	1077
1.039	1090
1.04	1093
1.041	1091
1.042	1091
1.043	1099
1.044	1121
1.045	1126
1.046	1130
1.047	1142
1.048	1151
1.049	1162
1.05	1170
1.051	1162
1.052	1169
1.053	1185
1.054	1191
1.055	1201
1.056	1218
1.057	1229
1.058	1224
1.059	1224
1.06	1233
1.061	1248
1.062	1260
1.063	1275
1.064	1277
1.065	1279
1.066	1281
1.067	1287
1.068	1309
1.069	1330
1.07	1335
1.071	1342
1.072	1352
1.073	1359
1.074	1366
1.075	1383
1.076	1405
1.077	1422
1.078	1427
1.079	1428
1.08	1434
1.081	1453
1.082	1470
1.083	1483
1.084	1500
1.085	1520
1.086	1535
1.087	1547
1.088	1546
1.089	1561
1.09	1583
1.091	1606
1.092	1616
1.093	1629
1.094	1641
1.095	1650
1.096	1672
1.097	1685
1.098	1704
1.099	1726
1.099	1732
1.101	1738
1.102	1758
1.102	1781
1.103	1797
1.104	1810
1.105	1824
1.106	1838
1.107	1850
1.108	1854
1.109	1872
1.11	1889
1.111	1905
1.112	1909
1.113	1915
1.114	1925
1.115	1938
1.116	1951
1.117	1962
1.118	1974
1.119	1985
1.12	2007
1.121	2017
1.122	2026
1.123	2031
1.124	2038
1.125	2051
1.126	2059
1.127	2066
1.128	2068
1.129	2067
1.13	2086
1.131	2103
1.132	2113
1.133	2133
1.134	2146
1.135	2145
1.136	2146
1.137	2152
1.138	2163
1.139	2182
1.14	2191
1.141	2199
1.142	2207
1.143	2217
1.144	2209
1.145	2205
1.146	2221
1.147	2242
1.148	2258
1.149	2249
1.15	2237
1.151	2233
1.152	2246
1.153	2267
1.154	2272
1.155	2263
1.156	2273
1.157	2279
1.158	2276
1.159	2267
1.16	2271
1.161	2289
1.162	2302
1.163	2303
1.164	2295
1.165	2286
1.166	2292
1.167	2307
1.168	2320
1.169	2320
1.17	2324
1.171	2335
1.172	2350
1.173	2352
1.174	2346
1.175	2349
1.176	2347
1.177	2343
1.178	2347
1.179	2356
1.18	2362
1.181	2361
1.182	2353
1.183	2353
1.184	2349
1.185	2335
1.186	2322
1.187	2326
1.188	2325
1.189	2322
1.19	2307
1.191	2288
1.192	2289
1.193	2284
1.194	2280
1.195	2275
1.196	2275
1.197	2267
1.198	2253
1.199	2250
1.2	2246
1.201	2226
1.202	2224
1.203	2220
1.204	2205
1.205	2203
1.206	2195
1.207	2196
1.208	2191
1.209	2192
1.21	2195
1.211	2193
1.212	2179
1.213	2164
1.214	2145
1.215	2140
1.216	2131
1.217	2124
1.218	2116
1.219	2098
1.219	2079
1.221	2073
1.222	2063
1.222	2053
1.223	2041
1.224	2031
1.226	2030
1.226	2022
1.227	2011
1.228	1993
1.229	1980
1.23	1965
1.231	1952
1.232	1938
1.233	1918
1.234	1917
1.235	1906
1.236	1882
1.237	1854
1.238	1830
1.239	1807
1.24	1790
1.241	1772
1.242	1748
1.243	1713
1.244	1687
1.245	1674
1.246	1664
1.247	1666
1.248	1676
1.249	1663
1.25	1642
1.251	1615
1.252	1603
1.253	1600
1.254	1595
1.255	1586
1.256	1567
1.257	1533
1.258	1514
1.259	1517
1.26	1525
1.261	1531
1.262	1525
1.263	1508
1.264	1492
1.265	1483
1.266	1481
1.267	1491
1.268	1496
1.269	1495
1.27	1485
1.271	1464
1.272	1462
1.273	1463
1.274	1477
1.275	1483
1.276	1478
1.277	1484
1.278	1477
1.279	1474
1.28	1471
1.281	1469
1.282	1467
1.283	1463
1.284	1461
1.285	1448
1.286	1438
1.287	1431
1.288	1428
1.289	1422
1.29	1411
1.291	1395
1.292	1379
1.293	1366
1.294	1347
1.295	1331
1.296	1314
1.297	1299
1.298	1272
1.299	1251
1.3	1235
1.301	1214
1.302	1199
1.303	1186
1.304	1179
1.305	1172
1.306	1163
1.307	1145
1.308	1132
1.309	1120
1.31	1112
1.311	1102
1.312	1096
1.313	1096
1.314	1097
1.315	1096
1.316	1085
1.317	1078
1.318	1076
1.319	1072
1.32	1079
1.321	1084
1.322	1090
1.323	1095
1.324	1099
1.325	1099
1.326	1100
1.327	1102
1.328	1101
1.329	1098
1.33	1091
1.331	1084
1.332	1077
1.333	1066
1.334	1061
1.335	1055
1.336	1049
1.337	1040
1.338	1032
1.339	1026
1.34	1022
1.341	1012
1.342	1006
1.343	1000
1.343	995.6
1.344	995.5
1.346	992.4
1.346	991.5
1.347	993.7
1.348	986.7
1.349	975
1.35	967.4
1.351	962.2
1.352	954
1.353	949.1
1.354	941.6
1.355	936.7
1.356	929.5
1.357	925.1
1.358	916.1
1.359	914.9
1.36	906.2
1.361	902.2
1.362	901.4
1.363	898.8
1.364	899
1.365	893.9
1.366	891.5
1.367	884.5
1.368	881
1.369	877.4
1.37	874.1
1.371	872.4
1.372	866.8
1.373	859.3
1.374	852.9
1.375	849.8
1.376	841.7
1.377	840.1
1.378	836.6
1.379	827.5
1.38	825.3
1.381	825.3
1.382	824.7
1.383	823
1.384	823.6
1.385	825.7
1.386	824.8
1.387	818.7
1.388	814.8
1.389	815
1.39	814.6
1.391	811.6
1.392	802.7
1.393	800.1
1.394	795
1.395	791
1.396	785.5
1.397	780
1.398	774.1
1.399	767.5
1.4	764
1.401	759.4
1.402	754.9
1.403	753.4
1.404	750.6
1.405	749.9
1.406	747
1.407	744
1.408	745.4
1.409	745
1.41	742.6
1.411	739.1
1.412	735
1.413	732
1.414	726.1
1.415	722.6
1.416	717.4
1.417	714.7
1.418	713.6
1.419	711.5
1.42	707.4
1.421	703.3
1.422	703.6
1.423	701.2
1.424	698
1.425	694.4
1.426	693.2
1.427	692.4
1.428	690.8
1.429	688.1
1.43	685.3
1.431	681.3
1.432	677.1
1.433	673.6
1.434	670.9
1.435	669.7
1.436	665.9
1.437	664.7
1.438	662
1.439	659.5
1.44	659
1.441	656.3
1.442	652.3
1.443	651.1
1.444	648.8
1.445	648.5
1.446	648
1.447	646.8
1.448	646.7
1.449	645.6
1.45	646
1.451	642.9
1.452	642.8
1.453	640.2
1.454	638.5
1.455	637
1.456	634.8
1.457	633
1.458	630.8
1.459	627.9
1.46	624.8
1.461	623.9
1.462	621.6
1.463	619.3
1.463	617.6
1.464	617.1
1.466	615.2
1.467	613.7
1.467	613
1.468	611
1.469	609.7
1.47	609.5
1.471	607.1
1.472	605.4
1.473	605.5
1.474	605.1
1.475	604.6
1.476	602.9
1.477	601.1
1.478	599.9
1.479	599
1.48	596.3
1.481	595.8
1.482	594.9
1.483	594.5
1.484	594.7
1.485	595.8
1.486	595
1.487	593.9
1.488	593.5
1.489	594.5
1.49	593
1.491	591.5
1.492	590.9
1.493	590.2
1.494	590.3
1.495	590.1
1.496	588.7
1.497	587.8
1.498	585.5
1.499	584.3
1.5	583.8
1.501	584.2
1.502	584.4
1.503	583.7
1.504	584
1.505	582.1
1.506	582.4
1.507	580.6
1.508	579.7
1.509	579.8
1.51	581
1.511	581.1
1.512	581.3
1.513	581.6
1.514	581.4
1.515	582.3
1.516	583.2
1.517	583.5
1.518	582.7
1.519	581.8
1.52	581.3
1.521	581.1
1.522	581.7
1.523	582.3
1.524	582.6
1.525	582.2
1.526	582.9
1.527	583.2
1.528	583.4
1.529	584.4
1.53	586.6
1.531	586.9
1.532	588.2
1.533	589
1.534	590.6
1.535	590.5
1.536	591.9
1.537	593.4
1.538	593.9
1.539	596.2
1.54	597.5
1.541	598.8
1.542	600.6
1.543	601.6
1.544	603.6
1.545	605.8
1.546	607.6
1.547	608.9
1.548	610.2
1.549	612
1.55	613.8
1.551	614.4
1.552	616.7
1.553	619.8
1.554	622.9
1.555	625.1
1.556	628.4
1.557	631.3
1.558	634.4
1.559	637.8
1.56	641.1
1.561	644.6
1.562	646.8
1.563	650.4
1.564	654.4
1.565	657.6
1.566	661.5
1.567	665.4
1.568	670.2
1.569	674.2
1.57	679.5
1.571	684.1
1.572	689.1
1.573	694
1.574	699.7
1.575	705.3
1.576	710.8
1.577	716.8
1.578	723
1.579	730.3
1.58	737.4
1.581	743.7
1.582	750.9
1.583	758
1.584	764.7
1.584	772.9
1.586	780.9
1.587	789.9
1.587	796.9
1.588	806.4
1.589	816.1
1.59	825.4
1.591	835.1
1.592	844.8
1.593	854.5
1.594	864.4
1.595	874.5
1.596	887.8
1.597	898.6
1.598	911.9
1.599	923.8
1.6	936.4
1.601	949.4
1.602	962.4
1.603	976.3
1.604	990.7
1.605	1005
1.606	1019
1.607	1036
1.608	1052
1.609	1068
1.61	1085
1.611	1102
1.612	1121
1.613	1138
1.614	1155
1.615	1175
1.616	1194
1.617	1214
1.618	1235
1.619	1256
1.62	1277
1.621	1297
1.622	1320
1.623	1345
1.624	1367
1.625	1393
1.626	1418
1.627	1445
1.628	1472
1.629	1498
1.63	1525
1.631	1554
1.632	1584
1.633	1616
1.634	1644
1.635	1676
1.636	1707
1.637	1741
1.638	1775
1.639	1809
1.64	1844
1.641	1880
1.642	1915
1.643	1955
1.644	1992
1.645	2032
1.646	2071
1.647	2113
1.648	2156
1.649	2194
1.65	2238
1.651	2282
1.652	2328
1.653	2374
1.654	2422
1.655	2469
1.656	2518
1.657	2569
1.658	2622
1.659	2672
1.66	2725
1.661	2778
1.662	2835
1.663	2890
1.664	2948
1.665	3007
1.666	3066
1.667	3126
1.668	3188
1.669	3249
1.67	3315
1.671	3376
1.672	3441
1.673	3506
1.674	3573
1.675	3642
1.676	3712
1.677	3781
1.678	3848
1.679	3919
1.68	3993
1.681	4066
1.682	4141
1.683	4219
1.684	4294
1.685	4373
1.686	4452
1.687	4534
1.688	4612
1.689	4692
1.69	4774
1.691	4860
1.692	4941
1.693	5024
1.694	5110
1.695	5199
1.696	5286
1.697	5376
1.698	5462
1.699	5554
1.7	5642
1.701	5734
1.702	5828
1.703	5920
1.704	6013
1.704	6126
1.706	6216
1.707	6315
1.707	6412
1.708	6509
1.709	6608
1.711	6708
1.711	6818
1.712	6913
1.713	7019
1.714	7125
1.715	7234
1.716	7345
1.717	7451
1.718	7560
1.719	7673
1.72	7781
1.721	7898
1.722	8009
1.723	8127
1.724	8239
1.725	8359
1.726	8479
1.727	8600
1.728	8715
1.729	8834
1.73	8952
1.731	9076
1.732	9196
1.733	9321
1.734	9434
1.735	9558
1.736	9681
1.737	9799
1.738	9927
1.739	10050
1.74	10190
1.741	10310
1.742	10440
1.743	10570
1.744	10700
1.745	10830
1.746	10960
1.747	11090
1.748	11230
1.749	11360
1.75	11490
1.751	11620
1.752	11750
1.753	11890
1.754	12020
1.755	12150
1.756	12290
1.757	12420
1.758	12550
1.759	12690
1.76	12830
1.761	12960
1.762	13080
1.763	13220
1.764	13360
1.765	13500
1.766	13630
1.767	13760
1.768	13900
1.769	14050
1.77	14180
1.771	14320
1.772	14470
1.773	14610
1.774	14750
1.775	14900
1.776	15030
1.777	15180
1.778	15320
1.779	15470
1.78	15620
1.781	15760
1.782	15900
1.783	16050
1.784	16190
1.785	16340
1.786	16480
1.787	16630
1.788	16770
1.789	16920
1.79	17060
1.791	17200
1.792	17350
1.793	17500
1.794	17650
1.795	17800
1.796	17940
1.797	18090
1.798	18250
1.799	18410
1.8	18560
1.799	18440
1.798	18320
1.797	18200
1.796	18080
1.795	17970
1.794	17850
1.793	17720
1.792	17600
1.791	17480
1.79	17370
1.789	17260
1.788	17130
1.787	17000
1.786	16870
1.785	16760
1.784	16620
1.783	16500
1.782	16380
1.781	16250
1.78	16130
1.779	16010
1.778	15890
1.777	15760
1.776	15630
1.775	15510
1.774	15380
1.773	15250
1.772	15120
1.771	15000
1.77	14870
1.769	14750
1.768	14620
1.767	14490
1.766	14360
1.765	14240
1.764	14110
1.763	13980
1.762	13840
1.761	13720
1.76	13600
1.759	13470
1.758	13350
1.757	13220
1.756	13100
1.755	12960
1.754	12830
1.753	12700
1.752	12570
1.751	12440
1.75	12300
1.749	12170
1.748	12040
1.747	11900
1.746	11770
1.745	11640
1.744	11500
1.743	11350
1.742	11220
1.741	11090
1.74	10960
1.739	10820
1.738	10690
1.737	10550
1.736	10420
1.735	10280
1.734	10150
1.733	10030
1.732	9898
1.731	9770
1.73	9639
1.729	9506
1.728	9369
1.727	9240
1.726	9105
1.725	8970
1.724	8828
1.723	8694
1.722	8561
1.721	8432
1.72	8302
1.719	8177
1.718	8046
1.717	7921
1.716	7795
1.715	7664
1.714	7535
1.713	7408
1.712	7280
1.711	7164
1.711	7037
1.709	6914
1.708	6793
1.707	6679
1.707	6560
1.706	6439
1.704	6329
1.704	6211
1.703	6096
1.702	5988
1.701	5878
1.7	5774
1.699	5674
1.698	5572
1.697	5474
1.696	5373
1.695	5276
1.694	5177
1.693	5081
1.692	4991
1.691	4903
1.69	4810
1.689	4722
1.688	4637
1.687	4555
1.686	4473
1.685	4394
1.684	4314
1.683	4240
1.682	4163
1.681	4088
1.68	4015
1.679	3943
1.678	3870
1.677	3804
1.676	3735
1.675	3666
1.674	3599
1.673	3532
1.672	3470
1.671	3405
1.67	3347
1.669	3282
1.668	3223
1.667	3163
1.666	3105
1.665	3047
1.664	2990
1.663	2934
1.662	2882
1.661	2826
1.66	2775
1.659	2724
1.658	2674
1.657	2624
1.656	2575
1.655	2527
1.654	2483
1.653	2435
1.652	2391
1.651	2347
1.65	2305
1.649	2263
1.648	2225
1.647	2185
1.646	2145
1.645	2106
1.644	2068
1.643	2032
1.642	1996
1.641	1961
1.64	1926
1.639	1894
1.638	1861
1.637	1829
1.636	1797
1.635	1767
1.634	1738
1.633	1712
1.632	1682
1.631	1655
1.63	1628
1.629	1603
1.628	1579
1.627	1554
1.626	1529
1.625	1507
1.624	1484
1.623	1463
1.622	1441
1.621	1421
1.62	1403
1.619	1383
1.618	1365
1.617	1345
1.616	1328
1.615	1311
1.614	1294
1.613	1278
1.612	1263
1.611	1247
1.61	1232
1.609	1218
1.608	1205
1.607	1190
1.606	1174
1.605	1161
1.604	1149
1.603	1137
1.602	1125
1.601	1114
1.6	1104
1.599	1093
1.598	1083
1.597	1073
1.596	1064
1.595	1055
1.594	1046
1.593	1038
1.592	1030
1.591	1023
1.59	1014
1.589	1007
1.588	999.2
1.587	992.6
1.587	985.6
1.586	978.9
1.584	972.5
1.584	966.8
1.583	960.7
1.582	955.1
1.581	949.7
1.58	944.1
1.579	939.1
1.578	934
1.577	929.1
1.576	924.8
1.575	920
1.574	915.8
1.573	911.8
1.572	907.8
1.571	904.3
1.57	900.3
1.569	896.7
1.568	893.1
1.567	889.7
1.566	886.3
1.565	883.4
1.564	880.8
1.563	878
1.562	875.5
1.561	872.1
1.56	870.1
1.559	867.1
1.558	864.6
1.557	862.1
1.556	860
1.555	858.1
1.554	855.7
1.553	853.4
1.552	851.8
1.551	849.9
1.55	848.6
1.549	846.2
1.548	844.6
1.547	842.9
1.546	841.2
1.545	839.8
1.544	838.4
1.543	837
1.542	835.6
1.541	834.2
1.54	833.1
1.539	831.9
1.538	830.5
1.537	829
1.536	828.6
1.535	827.4
1.534	826.5
1.533	825.3
1.532	824.4
1.531	823.4
1.53	822.5
1.529	821.3
1.528	820.3
1.527	819.4
1.526	818.6
1.525	817.7
1.524	816.8
1.523	816
1.522	815.3
1.521	814.4
1.52	813.7
1.519	812.7
1.518	812.5
1.517	811.3
1.516	810.7
1.515	810.2
1.514	809.5
1.513	809
1.512	808.1
1.511	807.6
1.51	806.9
1.509	806.5
1.508	805.5
1.507	805.2
1.506	804.3
1.505	804.3
1.504	802.9
1.503	802.5
1.502	801.9
1.501	801.2
1.5	800.8
1.499	799.9
1.498	799.3
1.497	798.9
1.496	797.9
1.495	797.6
1.494	796.8
1.493	796.4
1.492	795.7
1.491	795.2
1.49	794.4
1.489	793.7
1.488	793.1
1.487	792.5
1.486	791.8
1.485	791.1
1.484	790.3
1.483	789.8
1.482	789
1.481	788.8
1.48	787.5
1.479	787.3
1.478	786.6
1.477	785.8
1.476	785.5
1.475	784.4
1.474	783.8
1.473	783.1
1.472	782.5
1.471	781.8
1.47	780.9
1.469	780
1.468	779.8
1.467	778.6
1.467	778.4
1.466	777.3
1.464	776.9
1.463	776
1.463	775.5
1.462	774.7
1.461	774.3
1.46	773.4
1.459	772.6
1.458	772
1.457	771.5
1.456	770.6
1.455	769.8
1.454	769.3
1.453	768.5
1.452	768.5
1.451	767.2
1.45	766.7
1.449	765.7
1.448	765.2
1.447	764.3
1.446	763.6
1.445	762.8
1.444	762.1
1.443	761.4
1.442	760.5
1.441	759.8
1.44	759.2
1.439	758.4
1.438	757.6
1.437	757
1.436	756.2
1.435	755.7
1.434	755
1.433	754.1
1.432	753.7
1.431	752.6
1.43	752.1
1.429	751.2
1.428	750.8
1.427	749.9
1.426	749.2
1.425	748.5
1.424	748.1
1.423	747.9
1.422	746.8
1.421	746.1
1.42	745.3
1.419	744.7
1.418	743.8
1.417	743.2
1.416	742.4
1.415	741.9
1.414	741.1
1.413	740.7
1.412	739.7
1.411	739.2
1.41	738.2
1.409	737.5
1.408	737
1.407	736.3
1.406	735.6
1.405	735
1.404	734.5
1.403	734.3
1.402	733.2
1.401	732.5
1.4	731.9
1.399	731.4
1.398	731
1.397	730.3
1.396	729.6
1.395	729.6
1.394	729.3
1.393	728.6
1.392	727.9
1.391	727.1
1.39	726.7
1.389	725.8
1.388	725.4
1.387	724.7
1.386	724.3
1.385	723.6
1.384	723.2
1.383	722.7
1.382	722.3
1.381	721.5
1.38	721.1
1.379	720.8
1.378	720.5
1.377	719.5
1.376	719.2
1.375	718.4
1.374	718.5
1.373	717.7
1.372	717.3
1.371	716.9
1.37	716.3
1.369	716
1.368	715.5
1.367	715
1.366	715.1
1.365	714.8
1.364	714.2
1.363	713.8
1.362	713
1.361	713
1.36	712.2
1.359	712
1.358	711.6
1.357	711.3
1.356	710.8
1.355	710.4
1.354	709.9
1.353	709.8
1.352	709
1.351	708.9
1.35	708.4
1.349	708.1
1.348	707.5
1.347	707.4
1.346	707.1
1.346	707.1
1.344	706.4
1.343	706
1.343	705.7
1.342	705.6
1.341	705.2
1.34	705.1
1.339	705.3
1.338	704.9
1.337	704.7
1.336	704.4
1.335	704.2
1.334	703.6
1.333	703.4
1.332	702.6
1.331	702.2
1.33	702
1.329	701.6
1.328	701.3
1.327	701
1.326	700.6
1.325	700.7
1.324	700
1.323	699.8
1.322	699.5
1.321	699.5
1.32	699.5
1.319	699
1.318	698.5
1.317	698.5
1.316	698.1
1.315	697.8
1.314	697.5
1.313	697.2
1.312	696.5
1.311	696.4
1.31	696.2
1.309	696.1
1.308	695.8
1.307	695.6
1.306	695.2
1.305	695.1
1.304	694.8
1.303	694.1
1.302	693.7
1.301	693.5
1.3	693.2
1.299	692.8
1.298	692.2
1.297	691.6
1.296	691.5
1.295	690.7
1.294	690.3
1.293	689.8
1.292	688.9
1.291	688.2
1.29	687.8
1.289	687.3
1.288	686.8
1.287	685.8
1.286	685.1
1.285	684.3
1.284	683.6
1.283	682.9
1.282	682.4
1.281	681.8
1.28	680.9
1.279	680
1.278	679.2
1.277	678.2
1.276	677.1
1.275	676.1
1.274	674.7
1.273	674.3
1.272	673.2
1.271	672.3
1.27	671.3
1.269	670.4
1.268	669.4
1.267	668.6
1.266	667.5
1.265	666.3
1.264	665.2
1.263	664.5
1.262	663.6
1.261	662.5
1.26	661.3
1.259	660.5
1.258	659.2
1.257	658.4
1.256	657.3
1.255	655.7
1.254	655.2
1.253	653.8
1.252	652.6
1.251	651.2
1.25	650
1.249	648.6
1.248	646.9
1.247	645.4
1.246	644.4
1.245	642.8
1.244	641
1.243	639.4
1.242	637.9
1.241	636.5
1.24	634.2
1.239	632.6
1.238	631.1
1.237	629.2
1.236	627.6
1.235	625.6
1.234	624.1
1.233	622.3
1.232	620.6
1.231	619.3
1.23	617.2
1.229	615.1
1.228	613.5
1.227	611.7
1.226	610.5
1.226	608.9
1.224	606.6
1.223	604.8
1.222	602.7
1.222	600.8
1.221	598.7
1.219	597.1
1.219	594.7
1.218	593
1.217	590.4
1.216	588.1
1.215	586.1
1.214	583.8
1.213	581.4
1.212	579.1
1.211	576.7
1.21	574.5
1.209	571.3
1.208	569
1.207	567.3
1.206	565
1.205	562.1
1.204	559.6
1.203	557.4
1.202	555.3
1.201	553.4
1.2	550.8
1.199	548.1
1.198	546.1
1.197	544
1.196	541.1
1.195	539
1.194	536.4
1.193	534.1
1.192	530.9
1.191	528.7
1.19	526.3
1.189	524.4
1.188	521.2
1.187	518.2
1.186	515.7
1.185	513.2
1.184	510.1
1.183	507.9
1.182	505.2
1.181	502.7
1.18	499.4
1.179	497.2
1.178	494.9
1.177	491.8
1.176	488.6
1.175	486.1
1.174	483.7
1.173	481.5
1.172	478
1.171	475.4
1.17	472.7
1.169	469.9
1.168	467.9
1.167	464.7
1.166	462.3
1.165	459.6
1.164	456.9
1.163	454.9
1.162	452
1.161	448.6
1.16	447.2
1.159	444.4
1.158	441.6
1.157	439.2
1.156	437
1.155	433.7
1.154	431.7
1.153	429.9
1.152	427.1
1.151	425
1.15	422.6
1.149	420.2
1.148	418.6
1.147	416.6
1.146	414.2
1.145	411.6
1.144	409.6
1.143	407.7
1.142	405.8
1.141	403.9
1.14	401.5
1.139	396.1
1.138	390
1.137	382.9
1.136	380.4
1.135	378.8
1.134	377.1
1.133	375.2
1.132	372.1
1.131	370.5
1.13	368.4
1.129	366.8
1.128	364
1.127	361.9
1.126	359.2
1.125	356.8
1.124	354.4
1.123	353
1.122	351.9
1.121	350.2
1.12	348.8
1.119	348.2
1.118	346.5
1.117	345.1
1.116	343.6
1.115	341.7
1.114	340.8
1.113	340.6
1.112	338.9
1.111	337.1
1.11	335.8
1.109	335
1.108	334.8
1.107	335
1.106	333
1.105	332
1.104	330.4
1.103	329
1.102	329.2
1.102	329.3
1.101	329.9
1.099	329.6
1.099	327.9
1.098	328.3
1.097	330.9
1.096	329.4
1.095	330.6
1.094	331
1.093	333
1.092	333.3
1.091	333.9
1.09	333.1
1.089	332.8
1.088	334.3
1.087	335.5
1.086	333.5
1.085	333.8
1.084	336.7
1.083	338.4
1.082	339.6
1.081	340.9
1.08	338.8
1.079	342.5
1.078	343.5
1.077	346.5
1.076	347.2
1.075	348.5
1.074	350.5
1.073	352.8
1.072	354.3
1.071	354.7
1.07	358.9
1.069	361.9
1.068	362.5
1.067	367.7
1.066	372.7
1.065	376
1.064	380.6
1.063	385.1
1.062	389.1
1.061	393.9
1.06	400.2
1.059	405.2
1.058	406.9
1.057	413.9
1.056	418.7
1.055	423.6
1.054	429.5
1.053	435.8
1.052	442.8
1.051	448
1.05	453.9
1.049	462.9
1.048	468.8
1.047	473.4
1.046	481.5
1.045	486
1.044	493.9
1.043	501.8
1.042	509.1
1.041	516.6
1.04	523.3
1.039	527.3
1.038	536.3
1.037	551.2
1.036	558.2
1.035	563.8
1.034	569.3
1.033	575.9
1.032	589
1.031	599.7
1.03	608.1
1.029	619.6
1.028	630.3
1.027	639
1.026	642.7
1.025	650.9
1.024	662
1.023	674.1
1.022	685.2
1.021	691.1
1.02	701.7
1.019	719.9
1.018	733.4
1.017	745.5
1.016	756.4
1.015	766.2
1.014	777.1
1.013	790.7
1.012	798.7
1.011	809.7
1.01	824
1.009	836.4
1.008	852.4
1.007	866.5
1.006	874
1.005	885.1
1.004	900.2
1.003	918.2
1.002	933.1
1.001	945.9
1	957
0.999	969.9
0.998	991.1
0.997	1009
0.996	1022
0.995	1032
0.994	1049
0.993	1070
0.992	1087
0.991	1103
0.99	1117
0.989	1135
0.988	1157
0.987	1177
0.986	1194
0.985	1212
0.984	1228
0.983	1243
0.982	1260
0.982	1280
0.981	1303
0.979	1322
0.978	1340
0.978	1356
0.977	1378
0.976	1395
0.975	1412
0.974	1430
0.973	1447
0.972	1473
0.971	1489
0.97	1504
0.969	1527
0.968	1547
0.967	1569
0.966	1587
0.965	1608
0.964	1628
0.963	1648
0.962	1651
0.961	1665
0.96	1694
0.959	1717
0.958	1740
0.957	1762
0.956	1783
0.955	1799
0.954	1819
0.953	1835
0.952	1863
0.951	1884
0.95	1903
0.949	1928
0.948	1953
0.947	1963
0.946	1985
0.945	2015
0.944	2042
0.943	2065
0.942	2078
0.941	2103
0.94	2128
0.939	2161
0.938	2184
0.937	2206
0.936	2220
0.935	2237
0.934	2271
0.933	2305
0.932	2343
0.931	2375
0.93	2388
0.929	2410
0.928	2423
0.927	2461
0.926	2495
0.925	2513
0.924	2524
0.923	2545
0.922	2574
0.921	2608
0.92	2628
0.919	2652
0.918	2658
0.917	2688
0.916	2729
0.915	2760
0.914	2790
0.913	2799
0.912	2819
0.911	2851
0.91	2892
0.909	2923
0.908	2939
0.907	2945
0.906	2964
0.905	3007
0.904	3053
0.903	3081
0.902	3112
0.901	3134
0.9	3150
0.899	3192
0.898	3233
0.897	3265
0.896	3291
0.895	3312
0.894	3339
0.893	3374
0.892	3394
0.891	3418
0.89	3452
0.889	3490
0.888	3511
0.887	3542
0.886	3558
0.885	3577
0.884	3612
0.883	3644
0.882	3687
0.881	3693
0.88	3721
0.879	3757
0.878	3799
0.877	3853
0.876	3884
0.875	3907
0.874	3932
0.873	3966
0.872	3996
0.871	4019
0.87	4054
0.869	4086
0.868	4113
0.867	4144
0.866	4176
0.865	4207
0.864	4240
0.863	4255
0.862	4279
0.861	4316
0.861	4371
0.859	4409
0.858	4435
0.858	4454
0.857	4498
0.856	4526
0.855	4574
0.854	4609
0.853	4631
0.852	4666
0.851	4708
0.85	4746
0.849	4773
0.848	4797
0.847	4838
0.846	4877
0.845	4922
0.844	4945
0.843	4993
0.842	5037
0.841	5075
0.84	5092
0.839	5120
0.838	5150
0.837	5189
0.836	5222
0.835	5240
0.834	5275
0.833	5319
0.832	5363
0.831	5380
0.83	5412
0.829	5456
0.828	5502
0.827	5549
0.826	5602
0.825	5631
0.824	5637
0.823	5680
0.822	5742
0.821	5780
0.82	5790
0.819	5807
0.818	5837
0.817	5874
0.816	5899
0.815	5926
0.814	5947
0.813	5995
0.812	6044
0.811	6098
0.81	6139
0.809	6142
0.808	6169
0.807	6202
0.806	6244
0.805	6293
0.804	6330
0.803	6358
0.802	6378
0.801	6396
0.8	6443
0.799	6496
0.798	6541
0.797	6548
0.796	6569
0.795	6634
0.794	6679
0.793	6700
0.792	6707
0.791	6760
0.79	6808
0.789	6854
0.788	6886
0.787	6911
0.786	6948
0.785	6985
0.784	7019
0.783	7034
0.782	7082
0.781	7114
0.78	7154
0.779	7187
0.778	7212
0.777	7266
0.776	7291
0.775	7318
0.774	7325
0.773	7378
0.772	7455
0.771	7476
0.77	7491
0.769	7523
0.768	7548
0.767	7582
0.766	7613
0.765	7644
0.764	7684
0.763	7720
0.762	7706
0.761	7722
0.76	7767
0.759	7816
0.758	7819
0.757	7831
0.756	7835
0.755	7884
0.754	7929
0.753	7949
0.752	7969
0.751	7996
0.75	8017
0.749	8081
0.748	8093
0.747	8099
0.746	8125
0.745	8158
0.744	8189
0.743	8215
0.742	8240
0.741	8254
0.741	8274
0.739	8283
0.738	8307
0.737	8340
0.737	8376
0.736	8371
0.734	8392
0.734	8425
0.733	8440
0.732	8459
0.731	8482
0.73	8491
0.729	8519
0.728	8530
0.727	8522
0.726	8551
0.725	8579
0.724	8573
0.723	8559
0.722	8549
0.721	8568
0.72	8564
0.719	8562
0.718	8557
0.717	8558
0.716	8562
0.715	8552
0.714	8545
0.713	8558
0.712	8566
0.711	8559
0.71	8565
0.709	8568
0.708	8575
0.707	8572
0.706	8566
0.705	8568
0.704	8571
0.703	8565
0.702	8555
0.701	8555
0.7	8551
0.699	8545
0.698	8548
0.697	8545
0.696	8534
0.695	8514
0.694	8511
0.693	8513
0.692	8490
0.691	8471
0.69	8471
0.689	8472
0.688	8467
0.687	8463
0.686	8464
0.685	8445
0.684	8435
0.683	8430
0.682	8427
0.681	8422
0.68	8410
0.679	8382
0.678	8377
0.677	8371
0.676	8375
0.675	8359
0.674	8342
0.673	8332
0.672	8339
0.671	8317
0.67	8299
0.669	8287
0.668	8289
0.667	8278
0.666	8268
0.665	8254
0.664	8215
0.663	8199
0.662	8213
0.661	8193
0.66	8170
0.659	8146
0.658	8133
0.657	8119
0.656	8103
0.655	8100
0.654	8078
0.653	8053
0.652	8055
0.651	8056
0.65	8038
0.649	8018
0.648	8006
0.647	8007
0.646	7987
0.645	7975
0.644	7979
0.643	7973
0.642	7949
0.641	7927
0.64	7924
0.639	7929
0.638	7921
0.637	7908
0.636	7876
0.635	7866
0.634	7861
0.633	7851
0.632	7826
0.631	7829
0.63	7821
0.629	7802
0.628	7787
0.627	7783
0.626	7778
0.625	7755
0.624	7743
0.623	7735
0.622	7714
0.621	7699
0.62	7706
0.619	7686
0.618	7679
0.617	7676
0.617	7646
0.616	7626
0.614	7620
0.614	7614
0.613	7615
0.612	7585
0.611	7550
0.61	7544
0.609	7548
0.608	7562
0.607	7547
0.606	7520
0.605	7494
0.604	7490
0.603	7491
0.602	7467
0.601	7462
0.6	7451
0.599	7439
0.598	7436
0.597	7424
0.596	7402
0.595	7375
0.594	7381
0.593	7383
0.592	7358
0.591	7344
0.59	7316
0.589	7295
0.588	7292
0.587	7286
0.586	7285
0.585	7271
0.584	7260
0.583	7234
0.582	7224
0.581	7213
0.58	7209
0.579	7205
0.578	7172
0.577	7158
0.576	7159
0.575	7149
0.574	7136
0.573	7121
0.572	7098
0.571	7060
0.57	7066
0.569	7057
0.568	7063
0.567	7026
0.566	7009
0.565	7011
0.564	6985
0.563	6964
0.562	6967
0.561	6974
0.56	6956
0.559	6930
0.558	6908
0.557	6881
0.556	6888
0.555	6878
0.554	6885
0.553	6853
0.552	6816
0.551	6810
0.55	6802
0.549	6779
0.548	6775
0.547	6753
0.546	6724
0.545	6703
0.544	6692
0.543	6679
0.542	6662
0.541	6642
0.54	6630
0.539	6585
0.538	6555
0.537	6552
0.536	6548
0.535	6536
0.534	6504
0.533	6501
0.532	6488
0.531	6472
0.53	6440
0.529	6433
0.528	6414
0.527	6403
0.526	6387
0.525	6365
0.524	6346
0.523	6325
0.522	6310
0.521	6294
0.52	6280
0.519	6253
0.518	6227
0.517	6217
0.516	6194
0.515	6184
0.514	6149
0.513	6106
0.512	6064
0.511	6044
0.51	6034
0.509	6027
0.508	5989
0.507	5950
0.506	5923
0.505	5890
0.504	5854
0.503	5823
0.502	5801
0.501	5757
0.5	5743
0.499	5699
0.498	5663
0.497	5639
0.496	5593
0.496	5563
0.494	5515
0.493	5468
0.493	5430
0.492	5389
0.491	5343
0.49	5287
0.489	5237
0.488	5181
0.487	5128
0.486	5070
0.485	5016
0.484	4978
0.483	4925
0.482	4843
0.481	4792
0.48	4744
0.479	4678
0.478	4599
0.477	4556
0.476	4505
0.475	4454
0.474	4385
0.473	4326
0.472	4267
0.471	4217
0.47	4156
0.469	4077
0.468	4022
0.467	3941
0.466	3865
0.465	3814
0.464	3751
0.463	3667
0.462	3589
0.461	3518
0.46	3434
0.459	3343
0.458	3259
0.457	3177
0.456	3099
0.455	3018
0.454	2949
0.453	2891
0.452	2825
0.451	2756
0.45	2682
0.449	2615
0.448	2559
0.447	2518
0.446	2451
0.445	2395
0.444	2352
0.443	2314
0.442	2275
0.441	2220
0.44	2164
0.439	2104
0.438	2056
0.437	2009
0.436	1965
0.435	1927
0.434	1891
0.433	1843
0.432	1796
0.431	1741
0.43	1695
0.429	1654
0.428	1602
0.427	1573
0.426	1520
0.425	1477
0.424	1441
0.423	1398
0.422	1352
0.421	1294
0.42	1253
0.419	1203
0.418	1163
0.417	1115
0.416	1074
0.415	1035
0.414	986
0.413	940.1
0.412	911
0.411	885
0.41	854.9
0.409	822.6
0.408	784.9
0.407	755.6
0.406	724
0.405	692.8
0.404	653.7
0.403	619.8
0.402	592.5
0.401	564.6
0.4	527.2
0.399	496.7
0.398	453
0.397	421.8
0.396	394.2
0.395	361.7
0.394	334.5
0.393	307.6
0.392	278.3
0.391	251.5
0.39	232.2
0.389	203.2
0.388	176.2
0.387	161.6
0.386	151.2
0.385	139.9
0.384	123.2
0.383	117.6
0.382	113.5
0.381	111.2
0.38	106.5
0.379	101.4
0.378	93.32
0.377	83.65
0.376	81.65
0.376	79.93
0.374	78.11
0.373	76.98
0.373	74.88
0.372	72.75
0.371	69.02
0.369	67.45
0.369	67.32
0.368	67.24
0.367	67.13
0.366	67.01
0.365	66.84
0.364	66.73
0.363	66.59
0.362	66.57
0.361	66.61
0.36	66.4
0.359	66.22
0.358	65.9
0.357	64.78
0.356	64.2
0.355	63.18
0.354	62.12
0.353	61.48
0.352	59.3
0.351	57.32
0.35	55.34
0.349	54.08
0.348	54.02
0.347	53.92
0.346	53.78
0.345	53.67
0.344	53.58
0.343	53.43
0.342	53.28
0.341	53.21
0.34	53.17
0.339	53.1
0.338	53.07
0.337	52.94
0.336	52.85
0.335	52.77
0.334	52.65
0.333	52.56
0.332	52.42
0.331	52.14
0.33	51.97
0.329	51.8
0.328	51.63
0.327	51.44
0.326	51.15
0.325	50.79
0.324	50.22
0.323	49.66
0.322	49.12
0.321	48.27
0.32	47.68
0.319	47.09
0.318	46.64
0.317	45.92
0.316	44.38
0.315	39.63
0.314	38.61
0.313	38.39
0.312	38.39
0.311	38.32
0.31	38.15
0.309	37.86
0.308	36.43
0.307	36.28
0.306	36.19
0.305	36.11
0.304	36.02
0.303	35.96
0.302	35.89
0.301	35.83
0.3	35.7
0.299	35.62
0.298	35.52
0.297	35.47
0.296	35.39
0.295	35.32
0.294	35.23
0.293	35.14
0.292	35.09
0.291	34.97
0.29	35
0.289	34.92
0.288	34.87
0.287	34.83
0.286	34.78
0.285	34.79
0.284	34.76
0.283	34.67
0.282	34.63
0.281	34.56
0.28	34.49
0.279	34.38
0.278	34.26
0.277	34.14
0.276	34.07
0.275	33.97
0.274	33.87
0.273	33.72
0.272	33.36
0.271	32.95
0.27	32.63
0.269	32.35
0.268	32.07
0.267	31.63
0.266	31.23
0.265	30.89
0.264	30.58
0.263	30.11
0.262	29.94
0.261	29.64
0.26	29.12
0.259	28.73
0.258	27.09
0.257	26.8
0.256	26.52
0.256	26.25
0.254	26.02
0.253	25.78
0.252	25.53
0.252	25.28
0.251	25.02
0.249	24.76
0.249	24.51
0.248	24.25
0.247	23.97
0.246	23.71
0.245	23.42
0.244	23.19
0.243	22.92
0.242	22.59
0.241	22.26
0.24	21.99
0.239	21.64
0.238	21.22
0.237	20.74
0.236	20.22
0.235	19.53
0.234	18.13
0.233	15.12
0.232	14.91
0.231	14.87
0.23	14.78
0.229	14.7
0.228	14.69
0.227	14.74
0.226	14.75
0.225	14.68
0.224	14.63
0.223	14.58
0.222	14.51
0.221	14.46
0.22	14.39
0.219	14.33
0.218	14.23
0.217	14.15
0.216	14.08
0.215	14
0.214	13.89
0.213	13.79
0.212	13.65
0.211	13.51
0.21	13.34
0.209	13.23
0.208	13.12
0.207	13.08
0.206	13.08
0.205	13.05
0.204	13.01
0.203	12.99
0.202	12.96
0.201	12.93
0.2	12.87
0.199	12.82
0.198	12.91
0.197	12.72
0.196	12.51
0.195	12.42
0.194	12.35
0.193	12.27
0.192	12.22
0.191	12.17
0.19	12.11
0.189	12
0.188	11.92
0.187	11.8
0.186	11.66
0.185	11.54
0.184	11.44
0.183	11.31
0.182	11.19
0.181	11.06
0.18	10.94
0.181	11.36
0.182	11.54
0.183	11.58
0.184	11.44
0.185	11.16
0.186	10.88
0.187	10.43
0.188	9.53
0.189	9.73
