Potential(V)	Current(uA)
0.19	-0.2596
0.191	-0.2198
0.192	-0.2104
0.193	-0.191
0.194	-0.1796
0.195	-0.1711
0.196	-0.1549
0.197	-0.1417
0.198	-0.1436
0.199	-0.1216
0.2	-0.09902
0.201	-0.1072
0.202	-0.1015
0.203	-0.08371
0.204	-0.0715
0.205	-0.06726
0.206	-0.05481
0.207	-0.05324
0.208	-0.04747
0.209	-0.0457
0.21	-0.03359
0.211	-0.03383
0.212	-0.02325
0.213	-0.01919
0.214	-0.01576
0.215	0.002408
0.216	-0.003457
0.217	0.00298
0.218	0.01748
0.219	0.01566
0.22	0.02019
0.221	0.02406
0.222	0.02959
0.223	0.04647
0.224	0.04551
0.225	0.05629
0.226	0.06669
0.227	0.07627
0.228	0.06554
0.229	0.08271
0.23	0.09339
0.231	0.09372
0.232	0.08233
0.233	0.09201
0.234	0.1068
0.235	0.1095
0.236	0.1085
0.237	0.1256
0.238	0.1194
0.239	0.1277
0.24	0.126
0.241	0.1299
0.242	0.135
0.243	0.1536
0.244	0.1492
0.245	0.1565
0.246	0.1547
0.247	0.1607
0.248	0.1679
0.249	0.1621
0.249	0.1718
0.251	0.1703
0.252	0.2151
0.252	0.2369
0.253	0.2323
0.254	0.245
0.256	0.2406
0.256	0.2426
0.257	0.2479
0.258	0.2434
0.259	0.2587
0.26	0.2548
0.261	0.2527
0.262	0.2534
0.263	0.2529
0.264	0.2647
0.265	0.2695
0.266	0.2614
0.267	0.267
0.268	0.2692
0.269	0.2699
0.27	0.2699
0.271	0.2707
0.272	0.2725
0.273	0.2743
0.274	0.2752
0.275	0.2765
0.276	0.2775
0.277	0.2838
0.278	0.2766
0.279	0.2872
0.28	0.2919
0.281	0.296
0.282	0.2886
0.283	0.296
0.284	0.2978
0.285	0.2993
0.286	0.2996
0.287	0.2976
0.288	0.2958
0.289	0.3004
0.29	0.3071
0.291	0.3021
0.292	0.2999
0.293	0.3038
0.294	0.3049
0.295	0.3021
0.296	0.3059
0.297	0.3182
0.298	0.3065
0.299	0.3133
0.3	0.3068
0.301	0.3107
0.302	0.3165
0.303	0.3081
0.304	0.313
0.305	0.328
0.306	0.3192
0.307	0.3114
0.308	0.3249
0.309	0.3172
0.31	0.3212
0.311	0.3329
0.312	0.3277
0.313	0.3226
0.314	0.3418
0.315	0.3275
0.316	0.3399
0.317	0.3336
0.318	0.3356
0.319	0.3334
0.32	0.3341
0.321	0.3413
0.322	0.344
0.323	0.345
0.324	0.3499
0.325	0.3404
0.326	0.3442
0.327	0.3474
0.328	0.3468
0.329	0.3459
0.33	0.3463
0.331	0.346
0.332	0.3459
0.333	0.3461
0.334	0.3535
0.335	0.3513
0.336	0.3569
0.337	0.3648
0.338	0.357
0.339	0.3498
0.34	0.3654
0.341	0.3636
0.342	0.3652
0.343	0.3656
0.344	0.3665
0.345	0.3672
0.346	0.368
0.347	0.3726
0.348	0.3732
0.349	0.377
0.35	0.3826
0.351	0.3795
0.352	0.3812
0.353	0.379
0.354	0.3742
0.355	0.3788
0.356	0.3743
0.357	0.3772
0.358	0.3822
0.359	0.3923
0.36	0.3888
0.361	0.3834
0.362	0.3813
0.363	0.3904
0.364	0.4019
0.365	0.392
0.366	0.3946
0.367	0.3949
0.368	0.3976
0.369	0.4012
0.369	0.3999
0.371	0.4055
0.372	0.4012
0.373	0.4046
0.373	0.4069
0.374	0.4047
0.376	0.4095
0.376	0.4128
0.377	0.4134
0.378	0.4208
0.379	0.4221
0.38	0.4148
0.381	0.4016
0.382	0.4045
0.383	0.4143
0.384	0.4094
0.385	0.4165
0.386	0.4171
0.387	0.431
0.388	0.4312
0.389	0.4355
0.39	0.4323
0.391	0.4279
0.392	0.4305
0.393	0.427
0.394	0.432
0.395	0.4392
0.396	0.4355
0.397	0.4401
0.398	0.4349
0.399	0.4417
0.4	0.4346
0.401	0.444
0.402	0.4337
0.403	0.4476
0.404	0.4521
0.405	0.4483
0.406	0.4484
0.407	0.4479
0.408	0.447
0.409	0.4477
0.41	0.4452
0.411	0.4552
0.412	0.46
0.413	0.4603
0.414	0.4621
0.415	0.4634
0.416	0.4648
0.417	0.4663
0.418	0.4679
0.419	0.469
0.42	0.4716
0.421	0.4777
0.422	0.4698
0.423	0.4805
0.424	0.4768
0.425	0.4868
0.426	0.4868
0.427	0.4785
0.428	0.4814
0.429	0.4923
0.43	0.4872
0.431	0.4925
0.432	0.5005
0.433	0.4987
0.434	0.5072
0.435	0.4949
0.436	0.5023
0.437	0.4973
0.438	0.505
0.439	0.504
0.44	0.4977
0.441	0.5053
0.442	0.5161
0.443	0.5122
0.444	0.5057
0.445	0.5073
0.446	0.5124
0.447	0.5144
0.448	0.5155
0.449	0.5178
0.45	0.5223
0.451	0.5233
0.452	0.5243
0.453	0.5183
0.454	0.5212
0.455	0.5365
0.456	0.5307
0.457	0.524
0.458	0.5314
0.459	0.5336
0.46	0.53
0.461	0.5308
0.462	0.5361
0.463	0.5402
0.464	0.5367
0.465	0.5383
0.466	0.5426
0.467	0.548
0.468	0.5475
0.469	0.544
0.47	0.5459
0.471	0.5502
0.472	0.5516
0.473	0.5533
0.474	0.5554
0.475	0.556
0.476	0.5606
0.477	0.563
0.478	0.5655
0.479	0.5657
0.48	0.567
0.481	0.5674
0.482	0.5776
0.483	0.5814
0.484	0.5805
0.485	0.5859
0.486	0.59
0.487	0.5875
0.488	0.5965
0.489	0.5932
0.49	0.6018
0.491	0.599
0.492	0.6067
0.493	0.5998
0.493	0.6027
0.494	0.6089
0.496	0.6043
0.496	0.6029
0.497	0.6128
0.498	0.6161
0.499	0.6176
0.5	0.6171
0.501	0.6205
0.502	0.6244
0.503	0.6228
0.504	0.6283
0.505	0.6319
0.506	0.634
0.507	0.6282
0.508	0.6335
0.509	0.6356
0.51	0.6362
0.511	0.6265
0.512	0.6326
0.513	0.6394
0.514	0.638
0.515	0.6422
0.516	0.6301
0.517	0.6378
0.518	0.6426
0.519	0.6476
0.52	0.6451
0.521	0.6431
0.522	0.6586
0.523	0.6476
0.524	0.6567
0.525	0.6548
0.526	0.6527
0.527	0.6605
0.528	0.6717
0.529	0.6647
0.53	0.6632
0.531	0.6686
0.532	0.6735
0.533	0.6741
0.534	0.6735
0.535	0.6748
0.536	0.6731
0.537	0.6767
0.538	0.6758
0.539	0.6817
0.54	0.6827
0.541	0.6888
0.542	0.6914
0.543	0.6893
0.544	0.6943
0.545	0.695
0.546	0.701
0.547	0.7079
0.548	0.6962
0.549	0.6994
0.55	0.704
0.551	0.708
0.552	0.7055
0.553	0.7184
0.554	0.708
0.555	0.7197
0.556	0.7227
0.557	0.7154
0.558	0.7181
0.559	0.7223
0.56	0.7286
0.561	0.7292
0.562	0.7346
0.563	0.7447
0.564	0.753
0.565	0.7479
0.566	0.7554
0.567	0.7584
0.568	0.7669
0.569	0.7598
0.57	0.7685
0.571	0.7693
0.572	0.7722
0.573	0.773
0.574	0.778
0.575	0.7732
0.576	0.7837
0.577	0.7863
0.578	0.7939
0.579	0.7886
0.58	0.7919
0.581	0.8015
0.582	0.8017
0.583	0.8039
0.584	0.8055
0.585	0.8137
0.586	0.8088
0.587	0.8133
0.588	0.8221
0.589	0.8187
0.59	0.8222
0.591	0.8235
0.592	0.8355
0.593	0.8412
0.594	0.8407
0.595	0.8413
0.596	0.8436
0.597	0.8509
0.598	0.8493
0.599	0.8625
0.6	0.8579
0.601	0.8666
0.602	0.8616
0.603	0.8711
0.604	0.8629
0.605	0.8733
0.606	0.8739
0.607	0.8787
0.608	0.8838
0.609	0.8818
0.61	0.889
0.611	0.897
0.612	0.8936
0.613	0.9034
0.614	0.9091
0.614	0.9101
0.616	0.9239
0.617	0.9225
0.617	0.9271
0.618	0.9344
0.619	0.9408
0.62	0.9431
0.621	0.9486
0.622	0.9424
0.623	0.9541
0.624	0.9586
0.625	0.9564
0.626	0.9663
0.627	0.9651
0.628	0.9802
0.629	0.9889
0.63	0.9781
0.631	0.9834
0.632	0.9875
0.633	1.001
0.634	0.9974
0.635	1.005
0.636	1.015
0.637	1.015
0.638	1.02
0.639	1.025
0.64	1.028
0.641	1.033
0.642	1.041
0.643	1.042
0.644	1.049
0.645	1.063
0.646	1.073
0.647	1.075
0.648	1.071
0.649	1.077
0.65	1.091
0.651	1.089
0.652	1.101
0.653	1.104
0.654	1.11
0.655	1.112
0.656	1.119
0.657	1.132
0.658	1.129
0.659	1.144
0.66	1.137
0.661	1.148
0.662	1.159
0.663	1.167
0.664	1.171
0.665	1.177
0.666	1.178
0.667	1.19
0.668	1.194
0.669	1.202
0.67	1.205
0.671	1.212
0.672	1.216
0.673	1.223
0.674	1.231
0.675	1.239
0.676	1.248
0.677	1.26
0.678	1.263
0.679	1.259
0.68	1.27
0.681	1.272
0.682	1.274
0.683	1.285
0.684	1.294
0.685	1.301
0.686	1.301
0.687	1.307
0.688	1.314
0.689	1.314
0.69	1.326
0.691	1.335
0.692	1.337
0.693	1.349
0.694	1.365
0.695	1.376
0.696	1.391
0.697	1.399
0.698	1.415
0.699	1.433
0.7	1.479
0.701	1.49
0.702	1.499
0.703	1.495
0.704	1.511
0.705	1.52
0.706	1.534
0.707	1.54
0.708	1.546
0.709	1.547
0.71	1.56
0.711	1.582
0.712	1.599
0.713	1.671
0.714	1.709
0.715	1.712
0.716	1.736
0.717	1.767
0.718	1.896
0.719	1.968
0.72	2.017
0.721	2.065
0.722	2.132
0.723	2.193
0.724	2.204
0.725	2.173
0.726	2.174
0.727	2.356
0.728	2.444
0.729	2.499
0.73	2.532
0.731	2.557
0.732	2.571
0.733	2.563
0.734	2.594
0.734	2.682
0.736	2.822
0.737	2.974
0.737	3.117
0.738	3.314
0.739	3.401
0.741	3.698
0.741	3.834
0.742	3.891
0.743	3.926
0.744	4.26
0.745	4.535
0.746	4.63
0.747	4.853
0.748	4.926
0.749	4.988
0.75	5.174
0.751	5.264
0.752	5.304
0.753	5.56
0.754	5.638
0.755	5.801
0.756	6.064
0.757	6.291
0.758	6.737
0.759	7.063
0.76	7.26
0.761	7.14
0.762	7.144
0.763	7.381
0.764	7.481
0.765	7.55
0.766	7.802
0.767	8.047
0.768	8.02
0.769	8.004
0.77	8.127
0.771	8.857
0.772	8.778
0.773	8.432
0.774	8.751
0.775	8.955
0.776	9.193
0.777	9.367
0.778	9.65
0.779	10.03
0.78	10.15
0.781	10.26
0.782	10.41
0.783	10.44
0.784	10.44
0.785	10.61
0.786	10.8
0.787	10.94
0.788	10.86
0.789	11.29
0.79	11.8
0.791	11.91
0.792	11.9
0.793	11.99
0.794	11.92
0.795	12.67
0.796	12.9
0.797	12.87
0.798	13.84
0.799	14.39
0.8	14.13
0.801	14.39
0.802	14.56
0.803	14.56
0.804	14.35
0.805	14.42
0.806	15
0.807	15.64
0.808	15.52
0.809	15.25
0.81	15.69
0.811	16.42
0.812	16.92
0.813	17
0.814	17.14
0.815	17.81
0.816	18.36
0.817	18.58
0.818	18.59
0.819	18.75
0.82	18.83
0.821	19.3
0.822	19.2
0.823	19.78
0.824	20.23
0.825	21.06
0.826	20.74
0.827	21.33
0.828	21.87
0.829	22.47
0.83	21.99
0.831	21.61
0.832	21.71
0.833	22.27
0.834	22.65
0.835	22.1
0.836	22.21
0.837	23.21
0.838	24.07
0.839	24.44
0.84	24.63
0.841	25.14
0.842	24.87
0.843	24.33
0.844	25.11
0.845	25.55
0.846	26.35
0.847	26.42
0.848	26.77
0.849	27.36
0.85	28.2
0.851	29
0.852	28.72
0.853	28.08
0.854	28.59
0.855	28.83
0.856	29.49
0.857	29.5
0.858	29.67
0.858	30.55
0.859	30.96
0.861	31.44
0.861	31.16
0.862	31.7
0.863	32.62
0.864	32.76
0.865	32.41
0.866	32.31
0.867	32.91
0.868	33.87
0.869	35.23
0.87	36.88
0.871	36.64
0.872	36.32
0.873	35.37
0.874	34.51
0.875	36.04
0.876	38
0.877	39.29
0.878	39.45
0.879	39.3
0.88	37.18
0.881	38.85
0.882	40.9
0.883	40.52
0.884	41.02
0.885	40.61
0.886	40.67
0.887	40.77
0.888	42.48
0.889	42.18
0.89	42.69
0.891	43.3
0.892	43.17
0.893	44
0.894	44.63
0.895	44.59
0.896	44.38
0.897	46.55
0.898	48
0.899	48.9
0.9	48.32
0.901	48.06
0.902	46.72
0.903	45.18
0.904	47.56
0.905	50.16
0.906	51.95
0.907	52.19
0.908	52.91
0.909	51.89
0.91	50.89
0.911	51.04
0.912	52.66
0.913	54.35
0.914	55.59
0.915	56.05
0.916	55.7
0.917	53.7
0.918	52.77
0.919	53.76
0.92	56.66
0.921	58.57
0.922	60.02
0.923	59.26
0.924	58.04
0.925	57.91
0.926	59.14
0.927	59.76
0.928	60.43
0.929	62.42
0.93	62.75
0.931	62.56
0.932	62.74
0.933	64.09
0.934	65.61
0.935	66.34
0.936	67.24
0.937	67.04
0.938	67.35
0.939	68.5
0.94	68.57
0.941	68.24
0.942	68.04
0.943	68.91
0.944	69.55
0.945	70.8
0.946	73.16
0.947	73.07
0.948	72.68
0.949	73.43
0.95	75.18
0.951	76.34
0.952	77
0.953	76.84
0.954	75.94
0.955	77.48
0.956	79.7
0.957	81.29
0.958	82.21
0.959	82.51
0.96	80.66
0.961	80.63
0.962	82.04
0.963	84.32
0.964	86.19
0.965	86.59
0.966	87.87
0.967	89.08
0.968	89.31
0.969	88.84
0.97	89.18
0.971	91.04
0.972	91.9
0.973	92.77
0.974	94.51
0.975	93.28
0.976	91.92
0.977	92.78
0.978	95.25
0.978	97.78
0.979	98.06
0.981	98.52
0.982	99.33
0.982	99.49
0.983	99.39
0.984	100
0.985	102
0.986	103.8
0.987	105.5
0.988	105.9
0.989	105.6
0.99	106.4
0.991	106.8
0.992	107.2
0.993	108.9
0.994	111.7
0.995	112.3
0.996	112.1
0.997	113.1
0.998	113.5
0.999	113.2
1	115.1
1.001	117.4
1.002	120.1
1.003	123.6
1.004	122.8
1.005	120
1.006	119
1.007	123.3
1.008	127.5
1.009	127.3
1.01	129.1
1.011	129.6
1.012	131
1.013	130.5
1.014	128.6
1.015	130.5
1.016	134.2
1.017	138
1.018	140.3
1.019	140.7
1.02	139.4
1.021	135
1.022	135
1.023	142.3
1.024	147.3
1.025	148.3
1.026	149.4
1.027	149.8
1.028	148.9
1.029	149.2
1.03	151.4
1.031	154.2
1.032	157.2
1.033	161.8
1.034	163.2
1.035	162.6
1.036	162.2
1.037	164.9
1.038	170.2
1.039	175.5
1.04	178.1
1.041	179.4
1.042	178.4
1.043	179.1
1.044	184
1.045	186.9
1.046	188.5
1.047	192.2
1.048	194.9
1.049	196.3
1.05	197.3
1.051	200.3
1.052	206.2
1.053	211.6
1.054	213.6
1.055	216.4
1.056	219
1.057	221.2
1.058	224.2
1.059	229.8
1.06	235.9
1.061	239.1
1.062	242.1
1.063	246.6
1.064	251.3
1.065	255.2
1.066	259.5
1.067	268.6
1.068	276.1
1.069	280.6
1.07	283.5
1.071	288.6
1.072	294.4
1.073	301.6
1.074	310.8
1.075	319
1.076	323.6
1.077	329.1
1.078	336.2
1.079	344.4
1.08	353.2
1.081	361.4
1.082	369.8
1.083	376.8
1.084	384.2
1.085	393.3
1.086	401.8
1.087	413.7
1.088	421.5
1.089	431.3
1.09	441.1
1.091	450.4
1.092	456.5
1.093	464.9
1.094	478.1
1.095	491.6
1.096	501.6
1.097	511.4
1.098	518.2
1.099	526.6
1.099	538.1
1.101	548.3
1.102	560.4
1.102	571.2
1.103	581.7
1.104	594.4
1.105	604.2
1.106	609.6
1.107	618.3
1.108	630.2
1.109	643
1.11	656.3
1.111	669.3
1.112	678
1.113	682.4
1.114	685.3
1.115	692.6
1.116	703.2
1.117	717.1
1.118	729.9
1.119	741.7
1.12	748.5
1.121	754
1.122	757.4
1.123	765.1
1.124	774.2
1.125	785.7
1.126	797.7
1.127	810.2
1.128	818.5
1.129	821
1.13	820.1
1.131	826.7
1.132	838.1
1.133	853.2
1.134	867.9
1.135	876.5
1.136	877.7
1.137	876.9
1.138	882.9
1.139	892.9
1.14	901.5
1.141	912.8
1.142	920
1.143	925
1.144	929
1.145	934
1.146	941.4
1.147	951.8
1.148	961.6
1.149	967.2
1.15	970
1.151	972.6
1.152	978.3
1.153	986
1.154	997.1
1.155	1006
1.156	1008
1.157	1008
1.158	1010
1.159	1012
1.16	1023
1.161	1036
1.162	1045
1.163	1049
1.164	1047
1.165	1042
1.166	1040
1.167	1045
1.168	1058
1.169	1071
1.17	1078
1.171	1078
1.172	1075
1.173	1071
1.174	1069
1.175	1073
1.176	1084
1.177	1094
1.178	1100
1.179	1100
1.18	1097
1.181	1092
1.182	1089
1.183	1095
1.184	1102
1.185	1109
1.186	1112
1.187	1112
1.188	1109
1.189	1107
1.19	1108
1.191	1108
1.192	1112
1.193	1117
1.194	1118
1.195	1118
1.196	1118
1.197	1118
1.198	1118
1.199	1117
1.2	1115
1.201	1117
1.202	1118
1.203	1118
1.204	1121
1.205	1121
1.206	1119
1.207	1117
1.208	1118
1.209	1119
1.21	1121
1.211	1125
1.212	1126
1.213	1124
1.214	1121
1.215	1116
1.216	1116
1.217	1122
1.218	1126
1.219	1125
1.219	1126
1.221	1125
1.222	1123
1.222	1122
1.223	1122
1.224	1122
1.226	1124
1.226	1122
1.227	1120
1.228	1118
1.229	1120
1.23	1118
1.231	1121
1.232	1124
1.233	1123
1.234	1122
1.235	1123
1.236	1120
1.237	1117
1.238	1118
1.239	1120
1.24	1119
1.241	1120
1.242	1121
1.243	1117
1.244	1116
1.245	1115
1.246	1118
1.247	1119
1.248	1117
1.249	1117
1.25	1116
1.251	1118
1.252	1119
1.253	1118
1.254	1117
1.255	1111
1.256	1109
1.257	1113
1.258	1115
1.259	1114
1.26	1113
1.261	1109
1.262	1103
1.263	1105
1.264	1112
1.265	1117
1.266	1113
1.267	1107
1.268	1102
1.269	1097
1.27	1098
1.271	1102
1.272	1105
1.273	1105
1.274	1103
1.275	1098
1.276	1089
1.277	1083
1.278	1083
1.279	1088
1.28	1089
1.281	1084
1.282	1076
1.283	1069
1.284	1061
1.285	1059
1.286	1059
1.287	1054
1.288	1047
1.289	1037
1.29	1028
1.291	1022
1.292	1020
1.293	1019
1.294	1015
1.295	1011
1.296	1005
1.297	998.4
1.298	993.6
1.299	988.7
1.3	990.4
1.301	993.5
1.302	995.9
1.303	997.9
1.304	996.1
1.305	988.9
1.306	986.4
1.307	989.8
1.308	991.4
1.309	993.9
1.31	995.2
1.311	988.5
1.312	981.4
1.313	979
1.314	981
1.315	986.8
1.316	990.6
1.317	991.4
1.318	988.3
1.319	985.4
1.32	984.8
1.321	984.6
1.322	986.4
1.323	987.7
1.324	988.4
1.325	987.1
1.326	985.7
1.327	983.2
1.328	978.4
1.329	978.4
1.33	981.2
1.331	985.2
1.332	986.4
1.333	984.9
1.334	984.5
1.335	981.1
1.336	978.4
1.337	978.9
1.338	981.7
1.339	983.3
1.34	980.5
1.341	978.1
1.342	976.5
1.343	979.1
1.343	982.4
1.344	984
1.346	978.2
1.346	970.4
1.347	967
1.348	967.4
1.349	967.7
1.35	971.1
1.351	972.4
1.352	969.4
1.353	967.8
1.354	964
1.355	961.6
1.356	959
1.357	956.6
1.358	949.9
1.359	944.4
1.36	940.9
1.361	936.6
1.362	929
1.363	920.6
1.364	914.9
1.365	906
1.366	893.3
1.367	880.2
1.368	867.3
1.369	855.8
1.37	844.4
1.371	835.2
1.372	825.9
1.373	815.6
1.374	805.5
1.375	794.7
1.376	787.1
1.377	780.7
1.378	774.7
1.379	769.7
1.38	761.8
1.381	755.5
1.382	750.9
1.383	746.1
1.384	742.8
1.385	738.7
1.386	735.1
1.387	731.7
1.388	728
1.389	722.8
1.39	718.1
1.391	713.2
1.392	709.3
1.393	706.9
1.394	704.1
1.395	702
1.396	699.9
1.397	697.4
1.398	696.4
1.399	695.7
1.4	694.6
1.401	692.5
1.402	691.2
1.403	691
1.404	689.4
1.405	688.3
1.406	685.6
1.407	684.5
1.408	683
1.409	680.7
1.41	677.4
1.411	676.4
1.412	676.1
1.413	675.2
1.414	673.1
1.415	672.9
1.416	672.7
1.417	672.8
1.418	672.8
1.419	671.9
1.42	671.4
1.421	670.8
1.422	671.7
1.423	672.9
1.424	672.8
1.425	673.5
1.426	674.3
1.427	675.6
1.428	676.7
1.429	677.5
1.43	677.8
1.431	678.4
1.432	677.5
1.433	676.8
1.434	676.5
1.435	675.6
1.436	674.8
1.437	671.7
1.438	668.3
1.439	662.4
1.44	659.5
1.441	657.1
1.442	650.9
1.443	647.7
1.444	644.5
1.445	640.8
1.446	635.7
1.447	632.9
1.448	629.9
1.449	627.2
1.45	626.4
1.451	625
1.452	622
1.453	619.9
1.454	619.9
1.455	617.7
1.456	616.7
1.457	616.5
1.458	617
1.459	617.8
1.46	617.7
1.461	618.2
1.462	618.1
1.463	617.1
1.463	615.6
1.464	615.1
1.466	615.2
1.467	614.5
1.467	614
1.468	613.7
1.469	612.5
1.47	610.8
1.471	608.9
1.472	607.7
1.473	605.2
1.474	603.9
1.475	599.8
1.476	598.7
1.477	596.8
1.478	594.6
1.479	592.2
1.48	589.9
1.481	588.5
1.482	587.4
1.483	585.6
1.484	584.9
1.485	583.2
1.486	582.9
1.487	582.7
1.488	581.2
1.489	579.8
1.49	579.3
1.491	577.5
1.492	575.1
1.493	574.1
1.494	574.4
1.495	572.6
1.496	571.8
1.497	571.8
1.498	571
1.499	570.5
1.5	570.6
1.501	569.8
1.502	569.9
1.503	569.9
1.504	569.9
1.505	569.8
1.506	569
1.507	568.3
1.508	566.6
1.509	565.8
1.51	565.4
1.511	564
1.512	563.5
1.513	563.2
1.514	562.9
1.515	563.1
1.516	563.3
1.517	563.6
1.518	563.9
1.519	563.2
1.52	563.7
1.521	564
1.522	564.5
1.523	564.4
1.524	564.4
1.525	564.8
1.526	564.7
1.527	564.1
1.528	564.2
1.529	564.9
1.53	565.5
1.531	565.7
1.532	566.4
1.533	567.3
1.534	567.7
1.535	568.6
1.536	568.6
1.537	569.4
1.538	570.9
1.539	572.6
1.54	573.9
1.541	575
1.542	575.7
1.543	576.6
1.544	578.3
1.545	580.6
1.546	582.1
1.547	583.7
1.548	586
1.549	588.1
1.55	590.1
1.551	592.1
1.552	593.8
1.553	595.9
1.554	598
1.555	600.3
1.556	601.3
1.557	603.9
1.558	606
1.559	609.1
1.56	611.5
1.561	614.4
1.562	617.1
1.563	620.6
1.564	624.3
1.565	628
1.566	630.7
1.567	634.6
1.568	638.3
1.569	642
1.57	645.9
1.571	649.9
1.572	654.6
1.573	659.5
1.574	664
1.575	669.1
1.576	675.5
1.577	681.2
1.578	687.1
1.579	693.3
1.58	699.7
1.581	705.8
1.582	713
1.583	719.2
1.584	726.4
1.584	732.6
1.586	739.8
1.587	747.9
1.587	755.6
1.588	763.3
1.589	771.7
1.59	780
1.591	789.4
1.592	798.3
1.593	807.1
1.594	817
1.595	827.2
1.596	838.8
1.597	848.5
1.598	859.5
1.599	870.1
1.6	881.1
1.601	892.7
1.602	904.8
1.603	917.3
1.604	930.3
1.605	943.5
1.606	956.8
1.607	970.8
1.608	985.2
1.609	1000
1.61	1016
1.611	1031
1.612	1048
1.613	1065
1.614	1082
1.615	1100
1.616	1118
1.617	1137
1.618	1156
1.619	1175
1.62	1196
1.621	1214
1.622	1235
1.623	1257
1.624	1279
1.625	1302
1.626	1325
1.627	1350
1.628	1374
1.629	1400
1.63	1425
1.631	1450
1.632	1477
1.633	1507
1.634	1533
1.635	1563
1.636	1593
1.637	1624
1.638	1656
1.639	1688
1.64	1720
1.641	1755
1.642	1788
1.643	1825
1.644	1860
1.645	1897
1.646	1935
1.647	1974
1.648	2014
1.649	2051
1.65	2092
1.651	2133
1.652	2176
1.653	2219
1.654	2264
1.655	2309
1.656	2355
1.657	2403
1.658	2452
1.659	2499
1.66	2551
1.661	2601
1.662	2655
1.663	2707
1.664	2762
1.665	2817
1.666	2874
1.667	2931
1.668	2989
1.669	3047
1.67	3110
1.671	3168
1.672	3232
1.673	3294
1.674	3358
1.675	3424
1.676	3491
1.677	3558
1.678	3621
1.679	3690
1.68	3760
1.681	3830
1.682	3901
1.683	3976
1.684	4047
1.685	4124
1.686	4200
1.687	4279
1.688	4355
1.689	4432
1.69	4511
1.691	4593
1.692	4672
1.693	4752
1.694	4834
1.695	4919
1.696	5003
1.697	5090
1.698	5173
1.699	5261
1.7	5346
1.701	5435
1.702	5526
1.703	5614
1.704	5702
1.704	5795
1.706	5881
1.707	5975
1.707	6084
1.708	6175
1.709	6270
1.711	6364
1.711	6467
1.712	6556
1.713	6655
1.714	6752
1.715	6853
1.716	6954
1.717	7051
1.718	7150
1.719	7255
1.72	7353
1.721	7458
1.722	7559
1.723	7664
1.724	7767
1.725	7873
1.726	7980
1.727	8087
1.728	8188
1.729	8293
1.73	8401
1.731	8510
1.732	8616
1.733	8726
1.734	8825
1.735	8935
1.736	9047
1.737	9156
1.738	9267
1.739	9375
1.74	9492
1.741	9600
1.742	9712
1.743	9828
1.744	9941
1.745	10060
1.746	10170
1.747	10280
1.748	10400
1.749	10510
1.75	10630
1.751	10750
1.752	10860
1.753	10980
1.754	11100
1.755	11220
1.756	11340
1.757	11450
1.758	11580
1.759	11690
1.76	11820
1.761	11930
1.762	12040
1.763	12170
1.764	12290
1.765	12420
1.766	12530
1.767	12660
1.768	12780
1.769	12900
1.77	13020
1.771	13150
1.772	13270
1.773	13400
1.774	13520
1.775	13650
1.776	13770
1.777	13900
1.778	14020
1.779	14150
1.78	14280
1.781	14400
1.782	14530
1.783	14660
1.784	14780
1.785	14920
1.786	15040
1.787	15170
1.788	15290
1.789	15420
1.79	15550
1.791	15670
1.792	15800
1.793	15930
1.794	16060
1.795	16190
1.796	16320
1.797	16450
1.798	16590
1.799	16720
1.8	16850
1.799	16710
1.798	16580
1.797	16450
1.796	16310
1.795	16180
1.794	16050
1.793	15910
1.792	15780
1.791	15640
1.79	15520
1.789	15390
1.788	15250
1.787	15120
1.786	14980
1.785	14870
1.784	14720
1.783	14590
1.782	14460
1.781	14330
1.78	14210
1.779	14080
1.778	13950
1.777	13820
1.776	13690
1.775	13570
1.774	13430
1.773	13300
1.772	13180
1.771	13050
1.77	12930
1.769	12810
1.768	12680
1.767	12560
1.766	12430
1.765	12310
1.764	12180
1.763	12060
1.762	11940
1.761	11830
1.76	11720
1.759	11600
1.758	11480
1.757	11360
1.756	11240
1.755	11120
1.754	11000
1.753	10880
1.752	10760
1.751	10640
1.75	10530
1.749	10410
1.748	10300
1.747	10180
1.746	10070
1.745	9953
1.744	9838
1.743	9723
1.742	9609
1.741	9494
1.74	9386
1.739	9269
1.738	9163
1.737	9050
1.736	8942
1.735	8831
1.734	8723
1.733	8623
1.732	8517
1.731	8411
1.73	8302
1.729	8194
1.728	8090
1.727	7990
1.726	7884
1.725	7779
1.724	7673
1.723	7571
1.722	7468
1.721	7367
1.72	7264
1.719	7166
1.718	7062
1.717	6965
1.716	6869
1.715	6768
1.714	6670
1.713	6573
1.712	6476
1.711	6388
1.711	6287
1.709	6193
1.708	6100
1.707	6010
1.707	5920
1.706	5828
1.704	5742
1.704	5652
1.703	5564
1.702	5479
1.701	5389
1.7	5302
1.699	5219
1.698	5132
1.697	5051
1.696	4966
1.695	4883
1.694	4800
1.693	4720
1.692	4640
1.691	4564
1.69	4483
1.689	4407
1.688	4330
1.687	4257
1.686	4180
1.685	4106
1.684	4031
1.683	3962
1.682	3889
1.681	3820
1.68	3751
1.679	3683
1.678	3615
1.677	3553
1.676	3488
1.675	3425
1.674	3361
1.673	3297
1.672	3236
1.671	3175
1.67	3118
1.669	3057
1.668	3001
1.667	2943
1.666	2887
1.665	2833
1.664	2778
1.663	2726
1.662	2675
1.661	2622
1.66	2573
1.659	2524
1.658	2477
1.657	2428
1.656	2383
1.655	2337
1.654	2295
1.653	2249
1.652	2207
1.651	2166
1.65	2126
1.649	2086
1.648	2051
1.647	2012
1.646	1974
1.645	1938
1.644	1901
1.643	1867
1.642	1832
1.641	1800
1.64	1766
1.639	1735
1.638	1705
1.637	1674
1.636	1645
1.635	1616
1.634	1588
1.633	1563
1.632	1535
1.631	1510
1.63	1485
1.629	1461
1.628	1437
1.627	1414
1.626	1391
1.625	1370
1.624	1348
1.623	1329
1.622	1308
1.621	1289
1.62	1272
1.619	1253
1.618	1236
1.617	1219
1.616	1202
1.615	1185
1.614	1170
1.613	1151
1.612	1137
1.611	1122
1.61	1108
1.609	1094
1.608	1082
1.607	1069
1.606	1057
1.605	1045
1.604	1034
1.603	1022
1.602	1012
1.601	1001
1.6	990.9
1.599	981.3
1.598	972.1
1.597	962.8
1.596	954.9
1.595	945.5
1.594	937.8
1.593	929.9
1.592	923
1.591	915.5
1.59	907.7
1.589	901.1
1.588	894.3
1.587	887.5
1.587	881
1.586	874.9
1.584	869.1
1.584	863.2
1.583	856.8
1.582	851.6
1.581	846.6
1.58	842.2
1.579	837.1
1.578	832.4
1.577	827.9
1.576	823.8
1.575	819.9
1.574	816.2
1.573	812.5
1.572	808.8
1.571	805.5
1.57	802.2
1.569	798.5
1.568	795.4
1.567	792.2
1.566	789.1
1.565	786.4
1.564	783.7
1.563	781
1.562	778.2
1.561	776
1.56	774.1
1.559	771.7
1.558	769.8
1.557	767.7
1.556	765.9
1.555	764.6
1.554	762.3
1.553	760.4
1.552	758.5
1.551	757.2
1.55	755.6
1.549	754
1.548	752.4
1.547	751.4
1.546	750
1.545	749.4
1.544	747.8
1.543	746.8
1.542	745.3
1.541	743.9
1.54	742.9
1.539	741.8
1.538	740.5
1.537	739.6
1.536	738.9
1.535	738.4
1.534	737.6
1.533	736.6
1.532	735.6
1.531	734.9
1.53	734.4
1.529	733.6
1.528	733
1.527	731.9
1.526	731.1
1.525	730.3
1.524	729.9
1.523	729.5
1.522	729.2
1.521	728.6
1.52	728.3
1.519	727.4
1.518	727.3
1.517	726.4
1.516	726.2
1.515	726
1.514	725.9
1.513	725.2
1.512	724.4
1.511	723.8
1.51	723.4
1.509	722.5
1.508	722.3
1.507	722.5
1.506	722.2
1.505	722.3
1.504	721.6
1.503	721.6
1.502	720.8
1.501	720.9
1.5	720.5
1.499	719.7
1.498	718.9
1.497	718.3
1.496	717.7
1.495	717
1.494	716.6
1.493	716.5
1.492	716.4
1.491	716.2
1.49	715.8
1.489	715.3
1.488	714.6
1.487	714.3
1.486	714.4
1.485	713.8
1.484	713.2
1.483	712.9
1.482	712.6
1.481	712.7
1.48	712.1
1.479	712.4
1.478	711.9
1.477	710.8
1.476	710.7
1.475	709.7
1.474	709.3
1.473	708.9
1.472	708.9
1.471	708.9
1.47	708.5
1.469	708.1
1.468	708.2
1.467	707.4
1.467	707.5
1.466	706.9
1.464	706.9
1.463	706.4
1.463	706.2
1.462	705.6
1.461	705.6
1.46	704.6
1.459	703.5
1.458	703.3
1.457	703.3
1.456	702.7
1.455	702.7
1.454	702.5
1.453	702.7
1.452	702.9
1.451	702.2
1.45	701.8
1.449	701.8
1.448	701.6
1.447	701.4
1.446	701.3
1.445	701.3
1.444	700.9
1.443	700.7
1.442	701
1.441	700.8
1.44	700.3
1.439	698.8
1.438	699.1
1.437	698.8
1.436	698.5
1.435	697.9
1.434	697.1
1.433	696.6
1.432	696.2
1.431	695.8
1.43	695.8
1.429	695.7
1.428	695.4
1.427	695.5
1.426	695
1.425	694.7
1.424	694.9
1.423	694.8
1.422	694.3
1.421	693.8
1.42	692.8
1.419	691.3
1.418	690
1.417	689.7
1.416	689.5
1.415	689.3
1.414	689.2
1.413	689.4
1.412	689.1
1.411	689
1.41	689
1.409	688.9
1.408	688.9
1.407	688.9
1.406	688.8
1.405	688.8
1.404	688.9
1.403	688.9
1.402	688.5
1.401	688.4
1.4	688.2
1.399	687.9
1.398	688.1
1.397	688.4
1.396	688.3
1.395	689.1
1.394	689.2
1.393	689.4
1.392	689.4
1.391	687.9
1.39	687.3
1.389	685.7
1.388	685.7
1.387	685.7
1.386	686.1
1.385	685.8
1.384	686.1
1.383	686.2
1.382	686.1
1.381	685.9
1.38	685.5
1.379	685.9
1.378	686.3
1.377	685.4
1.376	685
1.375	684.2
1.374	683.6
1.373	683
1.372	683.4
1.371	683
1.37	683.3
1.369	684.1
1.368	684.4
1.367	684.3
1.366	685.2
1.365	684.5
1.364	683.9
1.363	685
1.362	685.1
1.361	685.3
1.36	684
1.359	684.7
1.358	685.2
1.357	684.9
1.356	685.1
1.355	684.7
1.354	685.1
1.353	685.5
1.352	685.9
1.351	686.3
1.35	687.2
1.349	686.9
1.348	687.9
1.347	688.6
1.346	688.9
1.346	689.1
1.344	689.7
1.343	690.7
1.343	691.7
1.342	692.2
1.341	693.4
1.34	695.1
1.339	696.4
1.338	696.7
1.337	698
1.336	699
1.335	699.8
1.334	700.2
1.333	699.7
1.332	698.9
1.331	697.4
1.33	697.9
1.329	698.5
1.328	699.2
1.327	698.5
1.326	697.7
1.325	698.8
1.324	698.9
1.323	700.6
1.322	701.7
1.321	702.7
1.32	704.6
1.319	705.8
1.318	706.3
1.317	706.9
1.316	706.6
1.315	706.4
1.314	706.7
1.313	706.7
1.312	706.9
1.311	708.1
1.31	710.2
1.309	710.9
1.308	711.3
1.307	711.6
1.306	712
1.305	711.2
1.304	710.9
1.303	710.1
1.302	710.4
1.301	711.9
1.3	713.9
1.299	714.7
1.298	716.1
1.297	717.9
1.296	719.3
1.295	720.4
1.294	720.6
1.293	721.4
1.292	722.1
1.291	720.1
1.29	718.1
1.289	717.6
1.288	719.7
1.287	720.7
1.286	722.8
1.285	723.8
1.284	723.3
1.283	723.2
1.282	722.7
1.281	721
1.28	720.6
1.279	721
1.278	722.8
1.277	724
1.276	724.3
1.275	726
1.274	727.3
1.273	729
1.272	730.4
1.271	732.9
1.27	734.9
1.269	736.7
1.268	738.2
1.267	740.1
1.266	740.3
1.265	741.1
1.264	742.7
1.263	744.1
1.262	744.8
1.261	745.8
1.26	747.1
1.259	749.1
1.258	751.1
1.257	753.1
1.256	755.6
1.255	757.8
1.254	760
1.253	760.3
1.252	762.6
1.251	765.4
1.25	766.6
1.249	768.3
1.248	768.7
1.247	769.6
1.246	771.3
1.245	772.3
1.244	774.9
1.243	776.5
1.242	779.2
1.241	781.1
1.24	781.9
1.239	782.9
1.238	783.9
1.237	785.3
1.236	786.1
1.235	785.2
1.234	787
1.233	788.5
1.232	789.2
1.231	790.1
1.23	791.5
1.229	792.1
1.228	791.8
1.227	792.2
1.226	794
1.226	795.5
1.224	795.4
1.223	796
1.222	796.4
1.222	795
1.221	793.4
1.219	795.6
1.219	793.7
1.218	791.3
1.217	790.7
1.216	789.8
1.215	790.1
1.214	792.1
1.213	793.1
1.212	791.6
1.211	789.3
1.21	790.6
1.209	791.4
1.208	789.8
1.207	787.8
1.206	785.7
1.205	784.1
1.204	784.2
1.203	783.7
1.202	783.3
1.201	783.2
1.2	780.5
1.199	778.4
1.198	777.1
1.197	777.5
1.196	776.8
1.195	776.4
1.194	775.3
1.193	772.9
1.192	774.3
1.191	775
1.19	771.8
1.189	769.5
1.188	767.7
1.187	766.4
1.186	764.7
1.185	761
1.184	759.3
1.183	760.9
1.182	760.2
1.181	756.4
1.18	752.7
1.179	752.9
1.178	752.8
1.177	749.9
1.176	746.9
1.175	742.9
1.174	740.1
1.173	741
1.172	743.9
1.171	743
1.17	739.1
1.169	734.8
1.168	732.9
1.167	729.2
1.166	725.7
1.165	726.9
1.164	725.5
1.163	723.2
1.162	718.1
1.161	713
1.16	707.3
1.159	706.5
1.158	707.5
1.157	705.4
1.156	699.8
1.155	695.9
1.154	696.9
1.153	694.8
1.152	693.3
1.151	687.9
1.15	683.6
1.149	681
1.148	678.9
1.147	677.6
1.146	676.5
1.145	675.3
1.144	671.4
1.143	667.1
1.142	663.4
1.141	662.1
1.14	662.6
1.139	660.6
1.138	656.4
1.137	650.5
1.136	646.7
1.135	645.8
1.134	645.2
1.133	643.5
1.132	641
1.131	637.5
1.13	632.9
1.129	627.3
1.128	625.4
1.127	624.5
1.126	621.3
1.125	617.5
1.124	613
1.123	609.9
1.122	607.5
1.121	604.7
1.12	602.8
1.119	599.9
1.118	596.1
1.117	594
1.116	594.6
1.115	592.4
1.114	589.2
1.113	584.3
1.112	580.1
1.111	578.9
1.11	580.2
1.109	579.6
1.108	578
1.107	576.2
1.106	573.3
1.105	569
1.104	565.4
1.103	566.7
1.102	565.1
1.102	559.3
1.101	556.1
1.099	556.7
1.099	555.4
1.098	552.6
1.097	553.6
1.096	552.2
1.095	547.1
1.094	541.6
1.093	540.8
1.092	541.2
1.091	541.2
1.09	539.5
1.089	537.9
1.088	537.8
1.087	536.2
1.086	533.4
1.085	530.9
1.084	529.6
1.083	530.7
1.082	533
1.081	534.6
1.08	531.6
1.079	522.3
1.078	520.1
1.077	524.3
1.076	528.1
1.075	528.6
1.074	524.5
1.073	519.7
1.072	520.7
1.071	527
1.07	526.5
1.069	520.6
1.068	517.8
1.067	515.7
1.066	517.9
1.065	519.8
1.064	519.9
1.063	518.7
1.062	521.3
1.061	519.5
1.06	513.9
1.059	513.1
1.058	511.5
1.057	514
1.056	519.2
1.055	518.2
1.054	513.3
1.053	511.9
1.052	508.8
1.051	516.1
1.05	521.9
1.049	524
1.048	516.9
1.047	511.3
1.046	503.9
1.045	502.8
1.044	510.4
1.043	519.6
1.042	514.6
1.041	507.3
1.04	502.6
1.039	500.8
1.038	501.9
1.037	511.6
1.036	519.2
1.035	518.3
1.034	512.7
1.033	509.9
1.032	507.1
1.031	512.1
1.03	515.3
1.029	524
1.028	528.4
1.027	524.2
1.026	522.1
1.025	518.1
1.024	519.2
1.023	523.3
1.022	526.7
1.021	528.7
1.02	530
1.019	531.6
1.018	532.4
1.017	532
1.016	532.6
1.015	535.9
1.014	538
1.013	543.4
1.012	544.1
1.011	540.2
1.01	533.9
1.009	537.1
1.008	546.8
1.007	550.8
1.006	555.9
1.005	560.7
1.004	556.1
1.003	548
1.002	543.7
1.001	547.6
1	557.9
0.999	566.9
0.998	573.5
0.997	571.4
0.996	566.8
0.995	562.7
0.994	568.7
0.993	574.6
0.992	587.5
0.991	595.3
0.99	592.7
0.989	586.2
0.988	578.5
0.987	579.7
0.986	593.3
0.985	606.6
0.984	614.2
0.983	613.5
0.982	606.6
0.982	604.4
0.981	603.5
0.979	613.3
0.978	623.8
0.978	628.9
0.977	631.1
0.976	635.4
0.975	631.2
0.974	633.1
0.973	640.5
0.972	647.2
0.971	649.5
0.97	650.8
0.969	649.9
0.968	649.9
0.967	657.6
0.966	666.7
0.965	677.5
0.964	688
0.963	690
0.962	687.1
0.961	679.4
0.96	680.6
0.959	688.3
0.958	707.5
0.957	721.1
0.956	718.1
0.955	706.7
0.954	708.4
0.953	717
0.952	736.5
0.951	744.9
0.95	747.8
0.949	740.9
0.948	739.9
0.947	735.1
0.946	742.3
0.945	758.3
0.944	774.4
0.943	777.7
0.942	777.3
0.941	775.9
0.94	775.8
0.939	785.1
0.938	788.3
0.937	798.3
0.936	805.9
0.935	805.4
0.934	803.6
0.933	815.6
0.932	823.8
0.931	833.2
0.93	838.7
0.929	831.9
0.928	828.8
0.927	839
0.926	860.2
0.925	864.1
0.924	866.8
0.923	871.5
0.922	867.7
0.921	873
0.92	895.3
0.919	910.7
0.918	905.3
0.917	905.4
0.916	901
0.915	898
0.914	902.4
0.913	920
0.912	932.6
0.911	937.8
0.91	935.2
0.909	940
0.908	943.9
0.907	951.5
0.906	964.1
0.905	968.2
0.904	960.8
0.903	962.8
0.902	976.6
0.901	991.8
0.9	996.5
0.899	995
0.898	1004
0.897	1015
0.896	1016
0.895	1015
0.894	1028
0.893	1038
0.892	1043
0.891	1047
0.89	1052
0.889	1055
0.888	1067
0.887	1067
0.886	1069
0.885	1080
0.884	1098
0.883	1105
0.882	1107
0.881	1097
0.88	1103
0.879	1116
0.878	1128
0.877	1137
0.876	1139
0.875	1150
0.874	1154
0.873	1152
0.872	1158
0.871	1170
0.87	1180
0.869	1191
0.868	1194
0.867	1191
0.866	1186
0.865	1189
0.864	1212
0.863	1232
0.862	1237
0.861	1238
0.861	1236
0.859	1241
0.858	1243
0.858	1262
0.857	1272
0.856	1282
0.855	1289
0.854	1292
0.853	1288
0.852	1298
0.851	1311
0.85	1323
0.849	1331
0.848	1332
0.847	1338
0.846	1347
0.845	1366
0.844	1368
0.843	1370
0.842	1379
0.841	1385
0.84	1389
0.839	1405
0.838	1419
0.837	1423
0.836	1425
0.835	1427
0.834	1437
0.833	1446
0.832	1460
0.831	1468
0.83	1468
0.829	1481
0.828	1492
0.827	1494
0.826	1496
0.825	1499
0.824	1509
0.823	1529
0.822	1537
0.821	1540
0.82	1542
0.819	1550
0.818	1563
0.817	1577
0.816	1580
0.815	1587
0.814	1596
0.813	1602
0.812	1614
0.811	1629
0.81	1629
0.809	1643
0.808	1652
0.807	1658
0.806	1663
0.805	1671
0.804	1677
0.803	1698
0.802	1703
0.801	1707
0.8	1712
0.799	1731
0.798	1745
0.797	1749
0.796	1748
0.795	1752
0.794	1766
0.793	1784
0.792	1804
0.791	1814
0.79	1818
0.789	1818
0.788	1827
0.787	1844
0.786	1851
0.785	1863
0.784	1871
0.783	1882
0.782	1888
0.781	1889
0.78	1904
0.779	1911
0.778	1925
0.777	1934
0.776	1938
0.775	1946
0.774	1963
0.773	1975
0.772	1981
0.771	1978
0.77	1998
0.769	2013
0.768	2018
0.767	2031
0.766	2033
0.765	2051
0.764	2061
0.763	2069
0.762	2081
0.761	2097
0.76	2115
0.759	2118
0.758	2116
0.757	2120
0.756	2144
0.755	2168
0.754	2166
0.753	2168
0.752	2184
0.751	2194
0.75	2193
0.749	2215
0.748	2225
0.747	2226
0.746	2227
0.745	2236
0.744	2248
0.743	2265
0.742	2269
0.741	2273
0.741	2283
0.739	2304
0.738	2313
0.737	2312
0.737	2324
0.736	2337
0.734	2353
0.734	2359
0.733	2364
0.732	2376
0.731	2390
0.73	2397
0.729	2400
0.728	2399
0.727	2405
0.726	2424
0.725	2441
0.724	2435
0.723	2438
0.722	2450
0.721	2463
0.72	2472
0.719	2480
0.718	2473
0.717	2481
0.716	2489
0.715	2496
0.714	2511
0.713	2511
0.712	2514
0.711	2516
0.71	2517
0.709	2535
0.708	2545
0.707	2547
0.706	2549
0.705	2549
0.704	2557
0.703	2564
0.702	2563
0.701	2564
0.7	2573
0.699	2571
0.698	2585
0.697	2580
0.696	2571
0.695	2581
0.694	2589
0.693	2593
0.692	2586
0.691	2590
0.69	2593
0.689	2597
0.688	2600
0.687	2604
0.686	2607
0.685	2599
0.684	2602
0.683	2608
0.682	2617
0.681	2614
0.68	2618
0.679	2611
0.678	2613
0.677	2611
0.676	2615
0.675	2617
0.674	2610
0.673	2615
0.672	2620
0.671	2616
0.67	2614
0.669	2607
0.668	2607
0.667	2612
0.666	2611
0.665	2613
0.664	2609
0.663	2604
0.662	2608
0.661	2602
0.66	2593
0.659	2601
0.658	2608
0.657	2599
0.656	2596
0.655	2588
0.654	2590
0.653	2592
0.652	2588
0.651	2584
0.65	2578
0.649	2582
0.648	2581
0.647	2567
0.646	2564
0.645	2579
0.644	2573
0.643	2562
0.642	2559
0.641	2559
0.64	2560
0.639	2556
0.638	2550
0.637	2544
0.636	2542
0.635	2545
0.634	2546
0.633	2542
0.632	2536
0.631	2527
0.63	2530
0.629	2524
0.628	2524
0.627	2521
0.626	2514
0.625	2512
0.624	2518
0.623	2517
0.622	2500
0.621	2497
0.62	2495
0.619	2502
0.618	2491
0.617	2485
0.617	2482
0.616	2478
0.614	2487
0.614	2474
0.613	2460
0.612	2468
0.611	2479
0.61	2471
0.609	2458
0.608	2445
0.607	2445
0.606	2454
0.605	2453
0.604	2448
0.603	2435
0.602	2426
0.601	2437
0.6	2432
0.599	2422
0.598	2421
0.597	2414
0.596	2419
0.595	2407
0.594	2403
0.593	2391
0.592	2392
0.591	2405
0.59	2396
0.589	2378
0.588	2379
0.587	2376
0.586	2365
0.585	2366
0.584	2369
0.583	2365
0.582	2361
0.581	2347
0.58	2340
0.579	2343
0.578	2346
0.577	2342
0.576	2320
0.575	2314
0.574	2320
0.573	2323
0.572	2321
0.571	2309
0.57	2305
0.569	2300
0.568	2297
0.567	2290
0.566	2291
0.565	2278
0.564	2271
0.563	2262
0.562	2265
0.561	2275
0.56	2267
0.559	2249
0.558	2241
0.557	2239
0.556	2238
0.555	2236
0.554	2221
0.553	2215
0.552	2216
0.551	2209
0.55	2205
0.549	2204
0.548	2198
0.547	2188
0.546	2184
0.545	2176
0.544	2168
0.543	2164
0.542	2162
0.541	2158
0.54	2157
0.539	2147
0.538	2132
0.537	2120
0.536	2115
0.535	2122
0.534	2117
0.533	2112
0.532	2099
0.531	2085
0.53	2083
0.529	2080
0.528	2082
0.527	2070
0.526	2052
0.525	2046
0.524	2046
0.523	2031
0.522	2021
0.521	2022
0.52	2019
0.519	2003
0.518	1993
0.517	1982
0.516	1981
0.515	1978
0.514	1955
0.513	1949
0.512	1950
0.511	1932
0.51	1915
0.509	1904
0.508	1895
0.507	1892
0.506	1870
0.505	1860
0.504	1863
0.503	1852
0.502	1835
0.501	1815
0.5	1801
0.499	1798
0.498	1786
0.497	1763
0.496	1741
0.496	1731
0.494	1727
0.493	1701
0.493	1684
0.492	1668
0.491	1653
0.49	1635
0.489	1616
0.488	1605
0.487	1573
0.486	1548
0.485	1523
0.484	1492
0.483	1463
0.482	1435
0.481	1407
0.48	1373
0.479	1337
0.478	1305
0.477	1281
0.476	1255
0.475	1219
0.474	1189
0.473	1153
0.472	1123
0.471	1092
0.47	1059
0.469	1022
0.468	986.8
0.467	955.9
0.466	922.9
0.465	891.9
0.464	863.4
0.463	827.2
0.462	789.9
0.461	764.7
0.46	724.4
0.459	694.3
0.458	674.3
0.457	639.6
0.456	616.3
0.455	588.2
0.454	557
0.453	529.5
0.452	499.5
0.451	467.2
0.45	445.3
0.449	425.6
0.448	385.3
0.447	360.8
0.446	332.6
0.445	304.6
0.444	290.5
0.443	275
0.442	251.7
0.441	233
0.44	221.3
0.439	208.4
0.438	193.6
0.437	183.4
0.436	166
0.435	150.1
0.434	136.9
0.433	123.7
0.432	108.8
0.431	95.63
0.43	84.38
0.429	78.08
0.428	74.86
0.427	69.81
0.426	65.73
0.425	59.93
0.424	58.21
0.423	51.18
0.422	44.18
0.421	38.2
0.42	37.8
0.419	37.39
0.418	36.7
0.417	34.6
0.416	31.76
0.415	29.61
0.414	29.38
0.413	29.27
0.412	29.23
0.411	28.86
0.41	28.26
0.409	26.56
0.408	24.6
0.407	23.28
0.406	21.71
0.405	21.6
0.404	21.47
0.403	21.35
0.402	21.21
0.401	21.08
0.4	20.9
0.399	20.84
0.398	20.56
0.397	18.95
0.396	18.57
0.395	18.27
0.394	18.36
0.393	18.22
0.392	17.97
0.391	17.25
0.39	15.85
0.389	15.37
0.388	14.69
0.387	14.15
0.386	14.15
0.385	14.15
0.384	13.9
0.383	13.3
0.382	12.92
0.381	12.68
0.38	11.01
0.379	10.79
0.378	9.534
0.377	9.506
0.376	9.482
0.376	9.451
0.374	9.435
0.373	9.446
0.373	9.393
0.372	9.344
0.371	9.343
0.369	9.315
0.369	9.273
0.368	9.241
0.367	9.216
0.366	9.194
0.365	9.166
0.364	9.134
0.363	9.104
0.362	9.049
0.361	9.031
0.36	9.009
0.359	8.989
0.358	8.972
0.357	8.932
0.356	8.893
0.355	8.856
0.354	8.816
0.353	8.78
0.352	8.761
0.351	8.721
0.35	8.688
0.349	8.633
0.348	8.611
0.347	8.58
0.346	8.558
0.345	8.519
0.344	8.482
0.343	8.452
0.342	8.423
0.341	8.396
0.34	8.363
0.339	8.32
0.338	8.289
0.337	8.254
0.336	8.219
0.335	8.193
0.334	8.156
0.333	8.139
0.332	8.12
0.331	8.091
0.33	8.065
0.329	8.026
0.328	7.987
0.327	7.949
0.326	7.913
0.325	7.872
0.324	7.847
0.323	7.805
0.322	7.776
0.321	7.753
0.32	7.709
0.319	7.685
0.318	7.648
0.317	7.611
0.316	7.633
0.315	7.563
0.314	7.514
0.313	7.444
0.312	7.417
0.311	7.383
0.31	7.334
0.309	7.288
0.308	7.241
0.307	7.216
0.306	7.182
0.305	7.14
0.304	7.096
0.303	7.068
0.302	7.011
0.301	6.971
0.3	6.929
0.299	6.877
0.298	6.825
0.297	6.77
0.296	6.707
0.295	6.673
0.294	6.631
0.293	6.589
0.292	6.555
0.291	6.509
0.29	6.486
0.289	6.464
0.288	6.401
0.287	6.357
0.286	6.305
0.285	6.262
0.284	6.179
0.283	6.056
0.282	5.978
0.281	5.885
0.28	5.802
0.279	5.587
0.278	4.584
0.277	4.545
0.276	4.504
0.275	4.479
0.274	4.427
0.273	4.388
0.272	4.337
0.271	4.287
0.27	4.249
0.269	4.216
0.268	4.188
0.267	4.158
0.266	4.118
0.265	4.063
0.264	4.039
0.263	4.003
0.262	3.962
0.261	3.924
0.26	3.89
0.259	3.855
0.258	3.804
0.257	3.772
0.256	3.733
0.256	3.689
0.254	3.648
0.253	3.614
0.252	3.574
0.252	3.538
0.251	3.514
0.249	3.479
0.249	3.431
0.248	3.402
0.247	3.354
0.246	3.307
0.245	3.276
0.244	3.243
0.243	3.218
0.242	3.154
0.241	3.133
0.24	3.09
0.239	3.079
0.238	3.047
0.237	3.047
0.236	2.991
0.235	2.963
0.234	2.928
0.233	2.88
0.232	2.842
0.231	2.79
0.23	2.752
0.229	2.723
0.228	2.676
0.227	2.655
0.226	2.597
0.225	2.552
0.224	2.482
0.223	2.447
0.222	2.408
0.221	2.366
0.22	2.327
0.219	2.299
0.218	2.257
0.217	2.196
0.216	2.177
0.215	2.124
0.214	2.08
0.213	2.057
0.212	2.014
0.211	2.02
0.21	1.996
0.209	1.961
0.208	1.94
0.207	1.889
0.206	1.86
0.205	1.805
0.204	1.761
0.203	1.721
0.202	1.674
0.201	1.634
0.2	1.568
0.199	1.503
0.198	1.455
0.197	1.339
0.196	1.282
0.195	1.22
0.194	1.187
0.193	1.156
0.192	1.14
0.191	1.111
0.19	1.087
0.189	1.025
0.188	0.9606
0.187	0.8824
0.186	0.8011
0.185	0.6852
0.184	0.5528
0.183	0.4976
0.182	0.4533
0.181	0.4225
0.18	0.3568
0.181	0.7392
0.182	1.019
0.183	1.175
0.184	1.009
0.185	0.4218
0.186	0.2169
0.187	-0.6303
0.188	-0.9024
0.189	-0.6097
