Potential(V)	Current(uA)
0.19	0.03088
0.191	0.04532
0.192	0.08147
0.193	0.08371
0.194	0.09248
0.195	0.09816
0.196	0.1037
0.197	0.1101
0.198	0.1187
0.199	0.1237
0.2	0.1268
0.201	0.1432
0.202	0.1378
0.203	0.1433
0.204	0.141
0.205	0.1511
0.206	0.1611
0.207	0.1754
0.208	0.1798
0.209	0.1834
0.21	0.1771
0.211	0.1836
0.212	0.204
0.213	0.1907
0.214	0.2025
0.215	0.2073
0.216	0.2107
0.217	0.2108
0.218	0.2306
0.219	0.2303
0.22	0.2331
0.221	0.2371
0.222	0.2348
0.223	0.2516
0.224	0.2565
0.225	0.253
0.226	0.273
0.227	0.2693
0.228	0.28
0.229	0.2719
0.23	0.2836
0.231	0.2821
0.232	0.2978
0.233	0.2933
0.234	0.3
0.235	0.308
0.236	0.3066
0.237	0.3078
0.238	0.3193
0.239	0.3333
0.24	0.332
0.241	0.3357
0.242	0.3364
0.243	0.3447
0.244	0.3523
0.245	0.348
0.246	0.361
0.247	0.3632
0.248	0.3712
0.249	0.3713
0.249	0.3778
0.251	0.3872
0.252	0.392
0.252	0.397
0.253	0.3917
0.254	0.4033
0.256	0.4061
0.256	0.4099
0.257	0.4266
0.258	0.4268
0.259	0.4302
0.26	0.4167
0.261	0.4592
0.262	0.4437
0.263	0.4545
0.264	0.4477
0.265	0.4596
0.266	0.4615
0.267	0.4674
0.268	0.4754
0.269	0.471
0.27	0.4832
0.271	0.4835
0.272	0.4881
0.273	0.4962
0.274	0.5006
0.275	0.508
0.276	0.507
0.277	0.5229
0.278	0.5235
0.279	0.5231
0.28	0.5411
0.281	0.53
0.282	0.5381
0.283	0.5427
0.284	0.5482
0.285	0.5556
0.286	0.5607
0.287	0.559
0.288	0.5651
0.289	0.5673
0.29	0.5798
0.291	0.5834
0.292	0.584
0.293	0.5822
0.294	0.5821
0.295	0.5902
0.296	0.6087
0.297	0.6063
0.298	0.6155
0.299	0.6204
0.3	0.625
0.301	0.6326
0.302	0.6313
0.303	0.6247
0.304	0.6353
0.305	0.6519
0.306	0.6453
0.307	0.6486
0.308	0.66
0.309	0.6602
0.31	0.6617
0.311	0.6666
0.312	0.6659
0.313	0.6763
0.314	0.6891
0.315	0.6797
0.316	0.6877
0.317	0.6989
0.318	0.696
0.319	0.6997
0.32	0.6987
0.321	0.7055
0.322	0.7121
0.323	0.7114
0.324	0.7173
0.325	0.7227
0.326	0.723
0.327	0.7361
0.328	0.737
0.329	0.74
0.33	0.7428
0.331	0.744
0.332	0.7516
0.333	0.7434
0.334	0.7667
0.335	0.7549
0.336	0.768
0.337	0.7774
0.338	0.775
0.339	0.7764
0.34	0.778
0.341	0.7893
0.342	0.7883
0.343	0.7929
0.344	0.7954
0.345	0.804
0.346	0.8007
0.347	0.7956
0.348	0.8089
0.349	0.8238
0.35	0.8098
0.351	0.8154
0.352	0.8172
0.353	0.8213
0.354	0.8222
0.355	0.8413
0.356	0.8392
0.357	0.853
0.358	0.8577
0.359	0.8513
0.36	0.8592
0.361	0.8631
0.362	0.8612
0.363	0.8674
0.364	0.8727
0.365	0.8683
0.366	0.8854
0.367	0.8837
0.368	0.8888
0.369	0.8944
0.369	0.8921
0.371	0.8897
0.372	0.8915
0.373	0.8888
0.373	0.9005
0.374	0.9103
0.376	0.9081
0.376	0.9315
0.377	0.9299
0.378	0.9305
0.379	0.9291
0.38	0.9313
0.381	0.9335
0.382	0.9275
0.383	0.9283
0.384	0.9403
0.385	0.9412
0.386	0.9401
0.387	0.9407
0.388	0.9505
0.389	0.9564
0.39	0.9531
0.391	0.9599
0.392	0.9651
0.393	0.9649
0.394	0.9689
0.395	0.9835
0.396	0.9741
0.397	0.9787
0.398	0.9828
0.399	0.9949
0.4	0.9961
0.401	0.9921
0.402	0.9819
0.403	0.9977
0.404	1.005
0.405	1.005
0.406	1.009
0.407	1.011
0.408	1.016
0.409	1.014
0.41	1.014
0.411	1.015
0.412	1.021
0.413	1.027
0.414	1.03
0.415	1.037
0.416	1.038
0.417	1.042
0.418	1.046
0.419	1.047
0.42	1.055
0.421	1.05
0.422	1.055
0.423	1.073
0.424	1.076
0.425	1.084
0.426	1.082
0.427	1.083
0.428	1.08
0.429	1.078
0.43	1.078
0.431	1.086
0.432	1.09
0.433	1.088
0.434	1.091
0.435	1.096
0.436	1.104
0.437	1.101
0.438	1.114
0.439	1.118
0.44	1.127
0.441	1.12
0.442	1.114
0.443	1.123
0.444	1.128
0.445	1.131
0.446	1.144
0.447	1.147
0.448	1.151
0.449	1.149
0.45	1.157
0.451	1.161
0.452	1.167
0.453	1.155
0.454	1.162
0.455	1.159
0.456	1.158
0.457	1.159
0.458	1.178
0.459	1.184
0.46	1.184
0.461	1.187
0.462	1.2
0.463	1.197
0.464	1.201
0.465	1.205
0.466	1.213
0.467	1.203
0.468	1.207
0.469	1.208
0.47	1.216
0.471	1.215
0.472	1.225
0.473	1.226
0.474	1.227
0.475	1.227
0.476	1.234
0.477	1.234
0.478	1.238
0.479	1.241
0.48	1.241
0.481	1.244
0.482	1.259
0.483	1.268
0.484	1.297
0.485	1.303
0.486	1.315
0.487	1.316
0.488	1.316
0.489	1.311
0.49	1.338
0.491	1.328
0.492	1.34
0.493	1.339
0.493	1.339
0.494	1.339
0.496	1.339
0.496	1.351
0.497	1.343
0.498	1.358
0.499	1.367
0.5	1.366
0.501	1.374
0.502	1.373
0.503	1.37
0.504	1.384
0.505	1.379
0.506	1.389
0.507	1.391
0.508	1.393
0.509	1.404
0.51	1.415
0.511	1.414
0.512	1.413
0.513	1.424
0.514	1.43
0.515	1.437
0.516	1.443
0.517	1.436
0.518	1.451
0.519	1.465
0.52	1.449
0.521	1.455
0.522	1.455
0.523	1.466
0.524	1.472
0.525	1.481
0.526	1.486
0.527	1.493
0.528	1.499
0.529	1.497
0.53	1.502
0.531	1.505
0.532	1.51
0.533	1.518
0.534	1.525
0.535	1.53
0.536	1.529
0.537	1.538
0.538	1.54
0.539	1.547
0.54	1.544
0.541	1.562
0.542	1.636
0.543	1.646
0.544	1.658
0.545	1.658
0.546	1.662
0.547	1.673
0.548	1.672
0.549	1.683
0.55	1.675
0.551	1.68
0.552	1.698
0.553	1.705
0.554	1.701
0.555	1.706
0.556	1.717
0.557	1.722
0.558	1.729
0.559	1.737
0.56	1.743
0.561	1.739
0.562	1.751
0.563	1.755
0.564	1.768
0.565	1.762
0.566	1.777
0.567	1.79
0.568	1.784
0.569	1.8
0.57	1.807
0.571	1.806
0.572	1.811
0.573	1.814
0.574	1.814
0.575	1.821
0.576	1.837
0.577	1.855
0.578	1.848
0.579	1.851
0.58	1.865
0.581	1.861
0.582	1.875
0.583	1.883
0.584	1.893
0.585	1.898
0.586	1.901
0.587	1.903
0.588	1.906
0.589	1.919
0.59	1.922
0.591	1.932
0.592	1.935
0.593	1.938
0.594	1.953
0.595	1.961
0.596	1.964
0.597	1.97
0.598	1.973
0.599	1.981
0.6	1.989
0.601	1.996
0.602	2.001
0.603	2.015
0.604	2.013
0.605	2.032
0.606	2.036
0.607	2.038
0.608	2.041
0.609	2.049
0.61	2.054
0.611	2.062
0.612	2.07
0.613	2.079
0.614	2.091
0.614	2.087
0.616	2.108
0.617	2.113
0.617	2.119
0.618	2.125
0.619	2.138
0.62	2.146
0.621	2.15
0.622	2.161
0.623	2.173
0.624	2.18
0.625	2.194
0.626	2.193
0.627	2.205
0.628	2.215
0.629	2.231
0.63	2.235
0.631	2.245
0.632	2.263
0.633	2.269
0.634	2.284
0.635	2.29
0.636	2.35
0.637	2.363
0.638	2.385
0.639	2.432
0.64	2.501
0.641	2.437
0.642	2.382
0.643	2.4
0.644	2.404
0.645	2.408
0.646	2.425
0.647	2.432
0.648	2.435
0.649	2.444
0.65	2.462
0.651	2.481
0.652	2.494
0.653	2.513
0.654	2.517
0.655	2.548
0.656	2.572
0.657	2.631
0.658	2.731
0.659	2.736
0.66	2.808
0.661	2.865
0.662	2.916
0.663	2.937
0.664	2.971
0.665	3.009
0.666	3.046
0.667	3.054
0.668	3.087
0.669	3.112
0.67	3.172
0.671	3.442
0.672	3.488
0.673	3.497
0.674	3.535
0.675	3.529
0.676	3.59
0.677	3.616
0.678	3.661
0.679	3.744
0.68	3.783
0.681	3.812
0.682	3.861
0.683	3.894
0.684	3.919
0.685	3.952
0.686	3.993
0.687	4.001
0.688	4.067
0.689	4.083
0.69	4.125
0.691	4.169
0.692	4.189
0.693	4.255
0.694	4.286
0.695	4.301
0.696	4.448
0.697	4.504
0.698	4.525
0.699	4.595
0.7	4.7
0.701	4.752
0.702	4.795
0.703	4.898
0.704	4.905
0.705	5.03
0.706	5.041
0.707	5.101
0.708	5.176
0.709	5.232
0.71	5.259
0.711	5.332
0.712	5.416
0.713	5.458
0.714	5.546
0.715	5.671
0.716	5.738
0.717	5.738
0.718	5.863
0.719	5.906
0.72	5.967
0.721	6.42
0.722	6.614
0.723	6.774
0.724	6.891
0.725	7.123
0.726	7.228
0.727	7.476
0.728	7.602
0.729	7.795
0.73	8.12
0.731	8.482
0.732	8.724
0.733	9.189
0.734	9.702
0.734	10.04
0.736	9.476
0.737	9.749
0.737	10.43
0.738	10.82
0.739	11.03
0.741	11.57
0.741	11.9
0.742	12.47
0.743	13.22
0.744	13.33
0.745	13.85
0.746	14.4
0.747	14.82
0.748	15.57
0.749	16.11
0.75	16.59
0.751	17.59
0.752	17.8
0.753	18.65
0.754	19.29
0.755	20.05
0.756	20.62
0.757	21.01
0.758	21.64
0.759	22.34
0.76	23.33
0.761	25
0.762	25.39
0.763	25.87
0.764	26.86
0.765	27.74
0.766	28.42
0.767	29.46
0.768	29.87
0.769	31.04
0.77	31.69
0.771	32.6
0.772	33.37
0.773	34.02
0.774	35.07
0.775	35.75
0.776	36.5
0.777	37.45
0.778	38.71
0.779	39.34
0.78	40.23
0.781	41.12
0.782	42.55
0.783	44.83
0.784	45.6
0.785	45.71
0.786	47.15
0.787	48.56
0.788	51.53
0.789	53.26
0.79	54.04
0.791	51.97
0.792	49.5
0.793	51.9
0.794	53.72
0.795	54.31
0.796	54.39
0.797	55
0.798	56.54
0.799	58.12
0.8	59.07
0.801	61.49
0.802	62.18
0.803	63.38
0.804	64.12
0.805	65.46
0.806	68.23
0.807	70.76
0.808	71.31
0.809	70.97
0.81	71.57
0.811	74.06
0.812	76.48
0.813	77.44
0.814	78.39
0.815	78.79
0.816	80.8
0.817	82.47
0.818	82.83
0.819	83.15
0.82	85.07
0.821	88.16
0.822	89.31
0.823	89.44
0.824	90.6
0.825	91.9
0.826	93.94
0.827	95.92
0.828	98.88
0.829	98.32
0.83	98.22
0.831	99.91
0.832	104.5
0.833	108.1
0.834	108.4
0.835	109
0.836	109.9
0.837	111
0.838	113.3
0.839	115.4
0.84	116.5
0.841	118.2
0.842	119
0.843	120.2
0.844	122
0.845	122.9
0.846	124.5
0.847	127.6
0.848	128.5
0.849	126.8
0.85	129.3
0.851	132.6
0.852	133
0.853	133.8
0.854	135.7
0.855	136.6
0.856	138.7
0.857	141.8
0.858	144.6
0.858	145.2
0.859	145.5
0.861	142.8
0.861	137.6
0.862	139.9
0.863	143.9
0.864	146.2
0.865	146.1
0.866	147.5
0.867	151.5
0.868	151.9
0.869	152.7
0.87	154.2
0.871	156.4
0.872	158.9
0.873	160.1
0.874	163.6
0.875	164
0.876	165.4
0.877	165.3
0.878	168.7
0.879	173.3
0.88	176.6
0.881	176.1
0.882	175.7
0.883	175.5
0.884	176
0.885	179.7
0.886	186
0.887	188.8
0.888	187.4
0.889	187.6
0.89	189.3
0.891	191.4
0.892	194.9
0.893	198.4
0.894	198.9
0.895	199.9
0.896	202.5
0.897	203.5
0.898	206.3
0.899	208.3
0.9	208.5
0.901	211.3
0.902	218.1
0.903	221
0.904	218
0.905	216.1
0.906	217
0.907	218.5
0.908	224.4
0.909	227.8
0.91	229.6
0.911	231.2
0.912	233.1
0.913	232.7
0.914	235.5
0.915	237.3
0.916	240.6
0.917	241.3
0.918	244.8
0.919	246.5
0.92	245.7
0.921	250.3
0.922	251.4
0.923	251.9
0.924	256.1
0.925	261
0.926	263.1
0.927	261.8
0.928	261.2
0.929	262.5
0.93	268.4
0.931	272
0.932	272.2
0.933	273.4
0.934	275
0.935	274.4
0.936	273.5
0.937	277.9
0.938	281.9
0.939	285.6
0.94	287
0.941	289.1
0.942	288.3
0.943	287.1
0.944	291.5
0.945	299.1
0.946	299.7
0.947	299.5
0.948	300.2
0.949	303.1
0.95	303.1
0.951	307.3
0.952	308
0.953	311.4
0.954	316.6
0.955	315.1
0.956	317
0.957	320.7
0.958	323.4
0.959	325.2
0.96	326.6
0.961	325.3
0.962	329.5
0.963	331.1
0.964	333.8
0.965	339.2
0.966	339.8
0.967	340
0.968	341
0.969	343.2
0.97	345.7
0.971	348.8
0.972	352.8
0.973	358.1
0.974	361.1
0.975	356.4
0.976	355.4
0.977	357.3
0.978	360.9
0.978	367.6
0.979	375.9
0.981	371.9
0.982	365.5
0.982	367.3
0.983	378
0.984	382.2
0.985	381.1
0.986	381.3
0.987	379.2
0.988	381.4
0.989	390.3
0.99	401.7
0.991	406.1
0.992	402.1
0.993	396.4
0.994	393.3
0.995	396.6
0.996	406.9
0.997	416.3
0.998	419.6
0.999	417.5
1	419.5
1.001	423.3
1.002	426
1.003	427.9
1.004	428.8
1.005	428
1.006	430.7
1.007	436
1.008	443.2
1.009	440.2
1.01	436.7
1.011	440.5
1.012	448.1
1.013	455.4
1.014	457.1
1.015	458.5
1.016	455.6
1.017	455.9
1.018	461.5
1.019	469.3
1.02	472.2
1.021	475.7
1.022	472.8
1.023	475.9
1.024	484.5
1.025	486.2
1.026	486.6
1.027	489.6
1.028	495.7
1.029	498.6
1.03	500.7
1.031	504.1
1.032	509.2
1.033	513.3
1.034	518
1.035	521.9
1.036	526.1
1.037	529.9
1.038	536.1
1.039	541.2
1.04	541.7
1.041	541.4
1.042	546.1
1.043	550.4
1.044	555.2
1.045	562.9
1.046	567.3
1.047	571.9
1.048	576.7
1.049	581.4
1.05	585.3
1.051	591.8
1.052	597.5
1.053	602.6
1.054	603.9
1.055	609
1.056	615.5
1.057	622
1.058	630.5
1.059	641.7
1.06	649.4
1.061	652.1
1.062	654.1
1.063	658.5
1.064	669.4
1.065	681.4
1.066	691.3
1.067	701.7
1.068	704.3
1.069	703.5
1.07	711.8
1.071	728.2
1.072	745.8
1.073	752.8
1.074	755.6
1.075	763.2
1.076	772.2
1.077	786.2
1.078	798.1
1.079	813.9
1.08	829
1.081	841.7
1.082	845.8
1.083	849.2
1.084	857
1.085	872.5
1.086	891.9
1.087	911.2
1.088	920.6
1.089	923.7
1.09	928.1
1.091	937.3
1.092	954.3
1.093	975.2
1.094	998
1.095	1013
1.096	1021
1.097	1026
1.098	1031
1.099	1040
1.099	1060
1.101	1077
1.102	1087
1.102	1095
1.103	1113
1.104	1122
1.105	1134
1.106	1139
1.107	1147
1.108	1157
1.109	1172
1.11	1194
1.111	1208
1.112	1213
1.113	1215
1.114	1216
1.115	1232
1.116	1251
1.117	1266
1.118	1274
1.119	1271
1.12	1265
1.121	1274
1.122	1293
1.123	1312
1.124	1320
1.125	1322
1.126	1329
1.127	1334
1.128	1343
1.129	1355
1.13	1365
1.131	1372
1.132	1377
1.133	1384
1.134	1387
1.135	1392
1.136	1399
1.137	1412
1.138	1426
1.139	1442
1.14	1449
1.141	1449
1.142	1448
1.143	1459
1.144	1467
1.145	1474
1.146	1480
1.147	1485
1.148	1485
1.149	1494
1.15	1505
1.151	1516
1.152	1521
1.153	1520
1.154	1523
1.155	1532
1.156	1538
1.157	1536
1.158	1545
1.159	1554
1.16	1556
1.161	1559
1.162	1572
1.163	1573
1.164	1571
1.165	1575
1.166	1580
1.167	1582
1.168	1586
1.169	1591
1.17	1590
1.171	1590
1.172	1587
1.173	1595
1.174	1607
1.175	1609
1.176	1605
1.177	1597
1.178	1601
1.179	1610
1.18	1609
1.181	1612
1.182	1609
1.183	1604
1.184	1601
1.185	1604
1.186	1612
1.187	1613
1.188	1607
1.189	1592
1.19	1591
1.191	1598
1.192	1610
1.193	1620
1.194	1611
1.195	1595
1.196	1571
1.197	1556
1.198	1556
1.199	1562
1.2	1574
1.201	1572
1.202	1557
1.203	1538
1.204	1526
1.205	1531
1.206	1546
1.207	1555
1.208	1554
1.209	1545
1.21	1535
1.211	1526
1.212	1534
1.213	1547
1.214	1553
1.215	1547
1.216	1534
1.217	1523
1.218	1521
1.219	1524
1.219	1526
1.221	1523
1.222	1519
1.222	1514
1.223	1510
1.224	1509
1.226	1510
1.226	1501
1.227	1487
1.228	1474
1.229	1475
1.23	1475
1.231	1471
1.232	1471
1.233	1468
1.234	1461
1.235	1462
1.236	1465
1.237	1458
1.238	1450
1.239	1431
1.24	1424
1.241	1426
1.242	1430
1.243	1427
1.244	1430
1.245	1432
1.246	1420
1.247	1413
1.248	1414
1.249	1405
1.25	1394
1.251	1390
1.252	1380
1.253	1362
1.254	1340
1.255	1318
1.256	1296
1.257	1288
1.258	1288
1.259	1286
1.26	1269
1.261	1249
1.262	1233
1.263	1221
1.264	1211
1.265	1208
1.266	1210
1.267	1211
1.268	1200
1.269	1187
1.27	1180
1.271	1176
1.272	1174
1.273	1171
1.274	1162
1.275	1148
1.276	1138
1.277	1131
1.278	1124
1.279	1122
1.28	1119
1.281	1117
1.282	1115
1.283	1113
1.284	1110
1.285	1108
1.286	1099
1.287	1087
1.288	1071
1.289	1054
1.29	1035
1.291	1019
1.292	1006
1.293	990.7
1.294	975.7
1.295	962.3
1.296	952.7
1.297	948.2
1.298	945.2
1.299	941.3
1.3	939
1.301	940.5
1.302	939.6
1.303	938.4
1.304	939
1.305	940
1.306	943.1
1.307	946.1
1.308	949.3
1.309	955.8
1.31	961.8
1.311	964.4
1.312	972.3
1.313	978.5
1.314	980.8
1.315	984.5
1.316	981.6
1.317	980.6
1.318	981
1.319	981.5
1.32	981.7
1.321	981.5
1.322	981.5
1.323	981.3
1.324	977.4
1.325	971.9
1.326	963.6
1.327	952.9
1.328	944.8
1.329	933.6
1.33	924.5
1.331	915.6
1.332	911.9
1.333	907.6
1.334	906.4
1.335	905.9
1.336	907.2
1.337	908.2
1.338	908.3
1.339	907.4
1.34	907
1.341	906.2
1.342	909.6
1.343	912.5
1.343	916.9
1.344	919.4
1.346	923.4
1.346	925.7
1.347	929.1
1.348	929.9
1.349	929.9
1.35	928.5
1.351	926.6
1.352	927.5
1.353	928
1.354	928.4
1.355	930
1.356	931.6
1.357	935.2
1.358	937.7
1.359	940.8
1.36	941.4
1.361	943
1.362	944
1.363	945.4
1.364	946.9
1.365	948.7
1.366	950.2
1.367	949
1.368	944
1.369	933.7
1.37	925.7
1.371	919.9
1.372	908
1.373	898.4
1.374	890.2
1.375	880.5
1.376	871
1.377	862.1
1.378	852.5
1.379	841.1
1.38	831.3
1.381	818.9
1.382	808.3
1.383	798.5
1.384	791.3
1.385	786
1.386	781.1
1.387	778
1.388	776.1
1.389	775.1
1.39	772.7
1.391	772.7
1.392	771.8
1.393	770.9
1.394	772.8
1.395	774.9
1.396	777
1.397	780
1.398	781.7
1.399	784
1.4	786.6
1.401	789.6
1.402	787
1.403	783.2
1.404	781.3
1.405	779.4
1.406	776.7
1.407	773.7
1.408	768.4
1.409	763
1.41	760.1
1.411	758.9
1.412	755.6
1.413	749.6
1.414	744.3
1.415	739.8
1.416	735.7
1.417	731.4
1.418	726.3
1.419	723.3
1.42	720.2
1.421	719
1.422	718.6
1.423	717
1.424	716.7
1.425	712.9
1.426	709.2
1.427	707.6
1.428	703.1
1.429	701.5
1.43	700
1.431	699
1.432	696
1.433	692.2
1.434	688.8
1.435	685
1.436	682.1
1.437	678.9
1.438	676.9
1.439	673.8
1.44	674.2
1.441	672.7
1.442	672.6
1.443	670.8
1.444	668.2
1.445	665
1.446	663.9
1.447	662.8
1.448	662
1.449	661.1
1.45	659.8
1.451	658.6
1.452	653.6
1.453	646.3
1.454	640.1
1.455	636.5
1.456	632.6
1.457	630.1
1.458	627.5
1.459	626.2
1.46	626.7
1.461	626.4
1.462	625.7
1.463	624.5
1.463	624.2
1.464	625.3
1.466	624.5
1.467	624.1
1.467	622.4
1.468	622.1
1.469	620.2
1.47	617.1
1.471	614
1.472	612.2
1.473	609.3
1.474	607.3
1.475	604.1
1.476	600.3
1.477	596.6
1.478	594.7
1.479	592.7
1.48	592
1.481	591.5
1.482	590.6
1.483	589.3
1.484	588.1
1.485	590.2
1.486	590
1.487	588.6
1.488	587.5
1.489	587.6
1.49	586.8
1.491	584.5
1.492	582.7
1.493	581.6
1.494	579.9
1.495	577.7
1.496	575.6
1.497	576
1.498	574.9
1.499	574.8
1.5	574.1
1.501	572.6
1.502	571
1.503	571.4
1.504	572.3
1.505	571.9
1.506	571
1.507	570.9
1.508	571.4
1.509	571.1
1.51	570.2
1.511	569.1
1.512	567.7
1.513	565.8
1.514	565.6
1.515	565.5
1.516	566
1.517	565.7
1.518	565.9
1.519	566.6
1.52	567.8
1.521	568.1
1.522	568.6
1.523	569
1.524	569.5
1.525	569.8
1.526	569.9
1.527	570.6
1.528	571.2
1.529	570.4
1.53	571.6
1.531	572.6
1.532	571.9
1.533	572.9
1.534	573.8
1.535	573.7
1.536	574.3
1.537	574.6
1.538	575.6
1.539	576.8
1.54	578.4
1.541	579.2
1.542	580.5
1.543	581.6
1.544	581.7
1.545	582.5
1.546	583.7
1.547	586.6
1.548	589.1
1.549	591.1
1.55	593.4
1.551	594.7
1.552	596.5
1.553	598.1
1.554	600.1
1.555	603.5
1.556	605.2
1.557	608
1.558	611.4
1.559	614.3
1.56	616.6
1.561	619.2
1.562	621.6
1.563	624.8
1.564	626.8
1.565	630.5
1.566	634.6
1.567	638.1
1.568	643.1
1.569	647.8
1.57	651.8
1.571	655.6
1.572	660.6
1.573	665.6
1.574	670
1.575	675.5
1.576	681.3
1.577	685.3
1.578	690.6
1.579	696.1
1.58	702.3
1.581	708.3
1.582	716
1.583	722.9
1.584	729.5
1.584	736.6
1.586	744.5
1.587	752
1.587	759.6
1.588	768.1
1.589	777.2
1.59	785.8
1.591	795.2
1.592	804.6
1.593	813.2
1.594	822
1.595	831.6
1.596	842.8
1.597	852.3
1.598	864.3
1.599	875.5
1.6	887.1
1.601	900.2
1.602	913.6
1.603	926.4
1.604	940
1.605	953
1.606	967.2
1.607	981.7
1.608	997.1
1.609	1012
1.61	1028
1.611	1043
1.612	1061
1.613	1077
1.614	1094
1.615	1112
1.616	1132
1.617	1150
1.618	1171
1.619	1190
1.62	1211
1.621	1230
1.622	1251
1.623	1274
1.624	1296
1.625	1321
1.626	1345
1.627	1371
1.628	1397
1.629	1422
1.63	1447
1.631	1474
1.632	1502
1.633	1533
1.634	1560
1.635	1590
1.636	1621
1.637	1653
1.638	1687
1.639	1719
1.64	1752
1.641	1788
1.642	1822
1.643	1860
1.644	1897
1.645	1935
1.646	1973
1.647	2014
1.648	2056
1.649	2094
1.65	2137
1.651	2179
1.652	2223
1.653	2269
1.654	2316
1.655	2361
1.656	2409
1.657	2458
1.658	2510
1.659	2559
1.66	2612
1.661	2663
1.662	2720
1.663	2772
1.664	2829
1.665	2887
1.666	2946
1.667	3005
1.668	3066
1.669	3126
1.67	3191
1.671	3251
1.672	3317
1.673	3381
1.674	3448
1.675	3515
1.676	3583
1.677	3653
1.678	3718
1.679	3790
1.68	3863
1.681	3936
1.682	4010
1.683	4087
1.684	4161
1.685	4241
1.686	4319
1.687	4401
1.688	4479
1.689	4559
1.69	4640
1.691	4726
1.692	4807
1.693	4891
1.694	4975
1.695	5063
1.696	5150
1.697	5241
1.698	5327
1.699	5419
1.7	5505
1.701	5597
1.702	5692
1.703	5781
1.704	5874
1.704	5969
1.706	6076
1.707	6174
1.707	6269
1.708	6364
1.709	6462
1.711	6560
1.711	6666
1.712	6758
1.713	6860
1.714	6960
1.715	7065
1.716	7170
1.717	7271
1.718	7374
1.719	7481
1.72	7582
1.721	7692
1.722	7796
1.723	7907
1.724	8013
1.725	8124
1.726	8235
1.727	8347
1.728	8453
1.729	8563
1.73	8676
1.731	8790
1.732	8901
1.733	9017
1.734	9122
1.735	9237
1.736	9357
1.737	9470
1.738	9589
1.739	9702
1.74	9828
1.741	9944
1.742	10070
1.743	10190
1.744	10320
1.745	10440
1.746	10570
1.747	10690
1.748	10820
1.749	10940
1.75	11070
1.751	11190
1.752	11320
1.753	11450
1.754	11580
1.755	11710
1.756	11840
1.757	11970
1.758	12100
1.759	12230
1.76	12360
1.761	12490
1.762	12610
1.763	12740
1.764	12880
1.765	13020
1.766	13150
1.767	13280
1.768	13410
1.769	13550
1.77	13680
1.771	13810
1.772	13940
1.773	14060
1.774	14190
1.775	14330
1.776	14450
1.777	14590
1.778	14720
1.779	14860
1.78	15000
1.781	15140
1.782	15280
1.783	15430
1.784	15570
1.785	15720
1.786	15850
1.787	15980
1.788	16120
1.789	16260
1.79	16400
1.791	16530
1.792	16680
1.793	16820
1.794	16970
1.795	17120
1.796	17260
1.797	17400
1.798	17550
1.799	17690
1.8	17840
1.799	17710
1.798	17580
1.797	17440
1.796	17320
1.795	17190
1.794	17060
1.793	16930
1.792	16800
1.791	16660
1.79	16550
1.789	16410
1.788	16280
1.787	16150
1.786	16020
1.785	15900
1.784	15750
1.783	15620
1.782	15490
1.781	15360
1.78	15240
1.779	15110
1.778	14980
1.777	14860
1.776	14720
1.775	14600
1.774	14460
1.773	14330
1.772	14200
1.771	14070
1.77	13940
1.769	13810
1.768	13680
1.767	13550
1.766	13420
1.765	13290
1.764	13160
1.763	13020
1.762	12880
1.761	12770
1.76	12640
1.759	12510
1.758	12390
1.757	12250
1.756	12140
1.755	12000
1.754	11870
1.753	11740
1.752	11610
1.751	11480
1.75	11350
1.749	11210
1.748	11090
1.747	10960
1.746	10830
1.745	10700
1.744	10570
1.743	10450
1.742	10310
1.741	10190
1.74	10060
1.739	9933
1.738	9808
1.737	9681
1.736	9559
1.735	9432
1.734	9311
1.733	9199
1.732	9075
1.731	8956
1.73	8831
1.729	8709
1.728	8595
1.727	8477
1.726	8355
1.725	8232
1.724	8112
1.723	7995
1.722	7873
1.721	7758
1.72	7638
1.719	7520
1.718	7403
1.717	7291
1.716	7179
1.715	7064
1.714	6949
1.713	6840
1.712	6728
1.711	6631
1.711	6520
1.709	6416
1.708	6315
1.707	6219
1.707	6120
1.706	6022
1.704	5931
1.704	5837
1.703	5746
1.702	5654
1.701	5561
1.7	5470
1.699	5385
1.698	5293
1.697	5209
1.696	5121
1.695	5036
1.694	4949
1.693	4866
1.692	4785
1.691	4706
1.69	4622
1.689	4542
1.688	4463
1.687	4388
1.686	4309
1.685	4232
1.684	4154
1.683	4083
1.682	4008
1.681	3935
1.68	3863
1.679	3793
1.678	3723
1.677	3660
1.676	3592
1.675	3526
1.674	3460
1.673	3394
1.672	3331
1.671	3268
1.67	3210
1.669	3146
1.668	3087
1.667	3028
1.666	2970
1.665	2913
1.664	2857
1.663	2802
1.662	2749
1.661	2694
1.66	2644
1.659	2593
1.658	2545
1.657	2494
1.656	2446
1.655	2399
1.654	2354
1.653	2309
1.652	2265
1.651	2222
1.65	2180
1.649	2139
1.648	2102
1.647	2062
1.646	2023
1.645	1986
1.644	1949
1.643	1913
1.642	1878
1.641	1844
1.64	1810
1.639	1777
1.638	1746
1.637	1714
1.636	1683
1.635	1654
1.634	1625
1.633	1600
1.632	1570
1.631	1544
1.63	1518
1.629	1494
1.628	1470
1.627	1446
1.626	1422
1.625	1400
1.624	1379
1.623	1358
1.622	1337
1.621	1317
1.62	1300
1.619	1281
1.618	1263
1.617	1245
1.616	1228
1.615	1211
1.614	1195
1.613	1179
1.612	1161
1.611	1146
1.61	1132
1.609	1119
1.608	1106
1.607	1092
1.606	1080
1.605	1067
1.604	1056
1.603	1044
1.602	1034
1.601	1023
1.6	1013
1.599	1003
1.598	993.7
1.597	984.6
1.596	976.2
1.595	966.9
1.594	958.8
1.593	950.8
1.592	943.7
1.591	936.8
1.59	928.9
1.589	922
1.588	914.9
1.587	908.6
1.587	902
1.586	895.9
1.584	890
1.584	884.8
1.583	879.2
1.582	874.1
1.581	868.9
1.58	864.1
1.579	858.9
1.578	854.3
1.577	849.9
1.576	846.2
1.575	841.8
1.574	838
1.573	834.2
1.572	830.8
1.571	827.5
1.57	824.2
1.569	820.7
1.568	817.5
1.567	814.3
1.566	811.8
1.565	809.2
1.564	806.7
1.563	804.4
1.562	801.8
1.561	799.4
1.56	797.3
1.559	795.1
1.558	792.7
1.557	790.5
1.556	788.9
1.555	787.5
1.554	785.5
1.553	783.9
1.552	782.3
1.551	781
1.55	779.7
1.549	777.8
1.548	776.3
1.547	775.1
1.546	773.5
1.545	772.7
1.544	771.5
1.543	770.7
1.542	769.5
1.541	768.7
1.54	767.8
1.539	767
1.538	765.7
1.537	765.1
1.536	764.5
1.535	764.1
1.534	763.4
1.533	762.3
1.532	761.4
1.531	761.1
1.53	760.7
1.529	759.4
1.528	758.3
1.527	757.7
1.526	757.5
1.525	756.9
1.524	756.5
1.523	756.2
1.522	755.8
1.521	755.5
1.52	755.1
1.519	754.7
1.518	754.8
1.517	754
1.516	754
1.515	753.6
1.514	753.3
1.513	753
1.512	752.8
1.511	752.4
1.51	752.4
1.509	751.8
1.508	751.8
1.507	751.6
1.506	751.5
1.505	751.1
1.504	750.6
1.503	750.5
1.502	750.1
1.501	750.1
1.5	749.8
1.499	749.4
1.498	748.9
1.497	748.9
1.496	748
1.495	748.1
1.494	747.2
1.493	747.2
1.492	746.7
1.491	746.4
1.49	745.8
1.489	745
1.488	744.2
1.487	744.2
1.486	743.9
1.485	743.7
1.484	743.3
1.483	743.2
1.482	742.5
1.481	742.7
1.48	741.7
1.479	742.1
1.478	741.7
1.477	741.3
1.476	741.3
1.475	740.7
1.474	740.4
1.473	740.1
1.472	739.8
1.471	739.7
1.47	739
1.469	738.5
1.468	738.1
1.467	737.6
1.467	737.5
1.466	737.5
1.464	736.9
1.463	735.6
1.463	735
1.462	734.9
1.461	734.5
1.46	734.1
1.459	733.2
1.458	733.1
1.457	733
1.456	732.4
1.455	732
1.454	731.9
1.453	732
1.452	732.3
1.451	731.7
1.45	731.3
1.449	730.7
1.448	730.5
1.447	729.3
1.446	728.9
1.445	728.2
1.444	727.9
1.443	727.5
1.442	727.4
1.441	727
1.44	726.7
1.439	725.9
1.438	725
1.437	724.6
1.436	723.7
1.435	723.4
1.434	723
1.433	722.3
1.432	721.5
1.431	720.9
1.43	720.4
1.429	719.7
1.428	719.3
1.427	718.4
1.426	718
1.425	717.6
1.424	717.6
1.423	717.3
1.422	716.6
1.421	716.1
1.42	715.7
1.419	715.3
1.418	714.7
1.417	714.3
1.416	713.9
1.415	713.6
1.414	713.1
1.413	712.7
1.412	711.9
1.411	711.7
1.41	711.1
1.409	710.9
1.408	710.8
1.407	710.4
1.406	710
1.405	709.9
1.404	709.6
1.403	709.8
1.402	709.1
1.401	708.7
1.4	708.5
1.399	707.9
1.398	707.7
1.397	707.1
1.396	706.9
1.395	707.4
1.394	706.5
1.393	706
1.392	705
1.391	704.6
1.39	704.4
1.389	703.8
1.388	704.2
1.387	703.6
1.386	703.6
1.385	703
1.384	702.6
1.383	702.4
1.382	702.5
1.381	701.7
1.38	701.4
1.379	701.2
1.378	701.1
1.377	700.7
1.376	700.8
1.375	700.1
1.374	700.2
1.373	699.6
1.372	699.6
1.371	699.2
1.37	698.9
1.369	698.3
1.368	698.2
1.367	698
1.366	698.2
1.365	698.1
1.364	697.8
1.363	697.1
1.362	696.6
1.361	696.7
1.36	696
1.359	695.1
1.358	695
1.357	694.6
1.356	694.8
1.355	694.3
1.354	693.3
1.353	692.9
1.352	692.7
1.351	692.8
1.35	692.7
1.349	692.6
1.348	692.1
1.347	692.1
1.346	692.2
1.346	692.3
1.344	692.4
1.343	692.3
1.343	692.4
1.342	692.3
1.341	691.2
1.34	691.2
1.339	691
1.338	690.9
1.337	690.8
1.336	690.7
1.335	690.9
1.334	690.2
1.333	690.6
1.332	690.3
1.331	690.1
1.33	689.2
1.329	688.3
1.328	688.2
1.327	687.5
1.326	686.8
1.325	687.1
1.324	686.6
1.323	686.7
1.322	686.6
1.321	686.9
1.32	686.8
1.319	686.4
1.318	685.7
1.317	685.3
1.316	684.4
1.315	684.7
1.314	684.9
1.313	685.3
1.312	685.3
1.311	684.8
1.31	685.4
1.309	684.2
1.308	683.8
1.307	682.8
1.306	682
1.305	681.7
1.304	681.2
1.303	681
1.302	681
1.301	680.9
1.3	680.9
1.299	681
1.298	680.9
1.297	680.8
1.296	680.5
1.295	679.9
1.294	680.1
1.293	680.6
1.292	679.8
1.291	678.2
1.29	677.5
1.289	675.9
1.288	676.1
1.287	675.7
1.286	675.8
1.285	674.5
1.284	672.1
1.283	670.9
1.282	668.9
1.281	667.1
1.28	664.3
1.279	663.2
1.278	661.8
1.277	661.4
1.276	661.5
1.275	661.4
1.274	660.9
1.273	660.8
1.272	660.4
1.271	659.6
1.27	659.3
1.269	658.9
1.268	658.6
1.267	657.9
1.266	656.2
1.265	655.6
1.264	654.6
1.263	653.5
1.262	652.7
1.261	652.4
1.26	652.1
1.259	652.2
1.258	652.2
1.257	652.5
1.256	652.8
1.255	652.7
1.254	652.2
1.253	651.7
1.252	651.5
1.251	651.5
1.25	651
1.249	650.6
1.248	650.2
1.247	648
1.246	648.4
1.245	647.4
1.244	645.9
1.243	646
1.242	646.4
1.241	644.5
1.24	643.5
1.239	643.5
1.238	644.2
1.237	643.7
1.236	641.7
1.235	638.5
1.234	636.9
1.233	635.3
1.232	635
1.231	634.4
1.23	634
1.229	633.8
1.228	633.4
1.227	632.3
1.226	631.2
1.226	630.3
1.224	629
1.223	626.8
1.222	626.4
1.222	625.8
1.221	624.9
1.219	624.3
1.219	622.9
1.218	622.2
1.217	621.9
1.216	620.1
1.215	618.2
1.214	617.3
1.213	615.5
1.212	613
1.211	610.5
1.21	609.2
1.209	608.1
1.208	606.3
1.207	604.8
1.206	604
1.205	602.5
1.204	602.3
1.203	602.5
1.202	602.2
1.201	600.8
1.2	600.9
1.199	600.4
1.198	599.3
1.197	598.3
1.196	596.6
1.195	596.9
1.194	596.3
1.193	595.1
1.192	592.4
1.191	591.6
1.19	591.3
1.189	591.3
1.188	590.8
1.187	589.6
1.186	588.3
1.185	588.7
1.184	588.6
1.183	588.5
1.182	586.5
1.181	585.3
1.18	584.1
1.179	582.7
1.178	581
1.177	578.1
1.176	574.6
1.175	573.3
1.174	572.7
1.173	571.2
1.172	569.5
1.171	569.2
1.17	568
1.169	565.7
1.168	563.6
1.167	562.6
1.166	561.8
1.165	560
1.164	559
1.163	557
1.162	554.9
1.161	551.7
1.16	550.6
1.159	548.1
1.158	546.1
1.157	545.4
1.156	546.1
1.155	544.5
1.154	542.1
1.153	539.9
1.152	538.3
1.151	536.1
1.15	534.2
1.149	531.7
1.148	531.3
1.147	531.2
1.146	530.2
1.145	529.3
1.144	526.4
1.143	523.9
1.142	523.2
1.141	523.9
1.14	524.2
1.139	525.1
1.138	523.9
1.137	521.3
1.136	520.2
1.135	520.4
1.134	519
1.133	517.1
1.132	516.7
1.131	516.8
1.13	516.2
1.129	514.9
1.128	513.2
1.127	511.7
1.126	512.3
1.125	515.8
1.124	516
1.123	514.5
1.122	512.8
1.121	511.5
1.12	511.5
1.119	509.6
1.118	507.4
1.117	506.5
1.116	507.9
1.115	512.1
1.114	512.9
1.113	512.2
1.112	507.8
1.111	506.5
1.11	506.1
1.109	505.7
1.108	506.9
1.107	509
1.106	511.5
1.105	513.1
1.104	512.5
1.103	513.5
1.102	515.2
1.102	516.6
1.101	516.4
1.099	518.6
1.099	522.8
1.098	523.1
1.097	522.5
1.096	521.5
1.095	520.5
1.094	522.3
1.093	528.8
1.092	531.4
1.091	527.5
1.09	523.6
1.089	522.3
1.088	523.5
1.087	524.6
1.086	525.9
1.085	531.7
1.084	534.1
1.083	534.9
1.082	534.3
1.081	532.1
1.08	531.4
1.079	536.5
1.078	539.4
1.077	540.9
1.076	536.5
1.075	527.2
1.074	526.1
1.073	528.8
1.072	532.3
1.071	534.4
1.07	535.6
1.069	538.3
1.068	539.1
1.067	543.4
1.066	549.9
1.065	552.5
1.064	554.3
1.063	556.8
1.062	559.9
1.061	566.8
1.06	573.3
1.059	579
1.058	579.9
1.057	580.4
1.056	582.9
1.055	588.6
1.054	597.8
1.053	610.3
1.052	612.3
1.051	616.4
1.05	617.5
1.049	618.7
1.048	623
1.047	633.3
1.046	644.7
1.045	648.8
1.044	653.6
1.043	657.6
1.042	663.8
1.041	672.6
1.04	679.6
1.039	687
1.038	691.2
1.037	699.7
1.036	711.7
1.035	719.5
1.034	728.3
1.033	732.2
1.032	736.2
1.031	744.8
1.03	758
1.029	763.3
1.028	769.3
1.027	780.1
1.026	788.8
1.025	799.2
1.024	814.6
1.023	826
1.022	837.6
1.021	847.6
1.02	856.7
1.019	867.3
1.018	880.4
1.017	889.8
1.016	899.5
1.015	912.1
1.014	924.3
1.013	936.3
1.012	948.9
1.011	962
1.01	978.4
1.009	991.5
1.008	995.2
1.007	1010
1.006	1025
1.005	1038
1.004	1052
1.003	1066
1.002	1084
1.001	1102
1	1110
0.999	1123
0.998	1139
0.997	1161
0.996	1171
0.995	1184
0.994	1201
0.993	1215
0.992	1234
0.991	1248
0.99	1271
0.989	1281
0.988	1297
0.987	1310
0.986	1327
0.985	1343
0.984	1361
0.983	1380
0.982	1397
0.982	1414
0.981	1435
0.979	1461
0.978	1480
0.978	1498
0.977	1514
0.976	1534
0.975	1554
0.974	1577
0.973	1587
0.972	1604
0.971	1625
0.97	1654
0.969	1682
0.968	1702
0.967	1716
0.966	1734
0.965	1750
0.964	1770
0.963	1797
0.962	1827
0.961	1855
0.96	1874
0.959	1886
0.958	1902
0.957	1919
0.956	1944
0.955	1980
0.954	2008
0.953	2036
0.952	2056
0.951	2077
0.95	2099
0.949	2118
0.948	2146
0.947	2178
0.946	2205
0.945	2229
0.944	2247
0.943	2268
0.942	2302
0.941	2327
0.94	2355
0.939	2383
0.938	2406
0.937	2435
0.936	2463
0.935	2488
0.934	2506
0.933	2538
0.932	2573
0.931	2606
0.93	2627
0.929	2640
0.928	2656
0.927	2684
0.926	2721
0.925	2769
0.924	2801
0.923	2815
0.922	2840
0.921	2874
0.92	2898
0.919	2933
0.918	2973
0.917	3004
0.916	3025
0.915	3050
0.914	3089
0.913	3135
0.912	3166
0.911	3197
0.91	3215
0.909	3239
0.908	3280
0.907	3331
0.906	3364
0.905	3390
0.904	3409
0.903	3441
0.902	3475
0.901	3515
0.9	3563
0.899	3590
0.898	3609
0.897	3635
0.896	3664
0.895	3703
0.894	3740
0.893	3786
0.892	3817
0.891	3849
0.89	3882
0.889	3909
0.888	3941
0.887	3992
0.886	4020
0.885	4048
0.884	4078
0.883	4133
0.882	4181
0.881	4206
0.88	4225
0.879	4265
0.878	4302
0.877	4357
0.876	4374
0.875	4384
0.874	4412
0.873	4463
0.872	4507
0.871	4539
0.87	4562
0.869	4587
0.868	4628
0.867	4663
0.866	4702
0.865	4747
0.864	4767
0.863	4799
0.862	4852
0.861	4907
0.861	4951
0.859	4978
0.858	4997
0.858	5030
0.857	5074
0.856	5106
0.855	5136
0.854	5186
0.853	5223
0.852	5255
0.851	5297
0.85	5332
0.849	5381
0.848	5399
0.847	5431
0.846	5480
0.845	5529
0.844	5549
0.843	5584
0.842	5617
0.841	5657
0.84	5691
0.839	5719
0.838	5767
0.837	5791
0.836	5834
0.835	5880
0.834	5917
0.833	5948
0.832	5997
0.831	6037
0.83	6083
0.829	6123
0.828	6148
0.827	6180
0.826	6210
0.825	6279
0.824	6320
0.823	6349
0.822	6392
0.821	6421
0.82	6483
0.819	6532
0.818	6562
0.817	6606
0.816	6649
0.815	6708
0.814	6744
0.813	6793
0.812	6821
0.811	6865
0.81	6898
0.809	6939
0.808	6995
0.807	7028
0.806	7066
0.805	7124
0.804	7165
0.803	7187
0.802	7232
0.801	7293
0.8	7369
0.799	7404
0.798	7431
0.797	7463
0.796	7520
0.795	7573
0.794	7637
0.793	7669
0.792	7723
0.791	7767
0.79	7798
0.789	7839
0.788	7894
0.787	7954
0.786	7990
0.785	8040
0.784	8080
0.783	8121
0.782	8169
0.781	8215
0.78	8241
0.779	8253
0.778	8294
0.777	8361
0.776	8407
0.775	8430
0.774	8451
0.773	8508
0.772	8579
0.771	8597
0.77	8631
0.769	8683
0.768	8715
0.767	8746
0.766	8806
0.765	8854
0.764	8890
0.763	8941
0.762	8988
0.761	9011
0.76	9047
0.759	9086
0.758	9136
0.757	9167
0.756	9194
0.755	9262
0.754	9305
0.753	9335
0.752	9366
0.751	9404
0.75	9420
0.749	9458
0.748	9500
0.747	9532
0.746	9577
0.745	9577
0.744	9580
0.743	9604
0.742	9640
0.741	9662
0.741	9661
0.739	9692
0.738	9709
0.737	9732
0.737	9736
0.736	9766
0.734	9779
0.734	9771
0.733	9795
0.732	9838
0.731	9835
0.73	9868
0.729	9869
0.728	9875
0.727	9867
0.726	9877
0.725	9886
0.724	9873
0.723	9877
0.722	9879
0.721	9901
0.72	9906
0.719	9890
0.718	9880
0.717	9878
0.716	9913
0.715	9920
0.714	9891
0.713	9904
0.712	9926
0.711	9931
0.71	9929
0.709	9934
0.708	9938
0.707	9940
0.706	9941
0.705	9941
0.704	9946
0.703	9936
0.702	9929
0.701	9938
0.7	9937
0.699	9935
0.698	9934
0.697	9932
0.696	9925
0.695	9923
0.694	9918
0.693	9918
0.692	9914
0.691	9906
0.69	9897
0.689	9898
0.688	9884
0.687	9869
0.686	9871
0.685	9869
0.684	9856
0.683	9846
0.682	9830
0.681	9826
0.68	9816
0.679	9797
0.678	9784
0.677	9777
0.676	9781
0.675	9775
0.674	9761
0.673	9738
0.672	9715
0.671	9723
0.67	9706
0.669	9714
0.668	9693
0.667	9667
0.666	9670
0.665	9654
0.664	9648
0.663	9639
0.662	9609
0.661	9585
0.66	9589
0.659	9592
0.658	9580
0.657	9544
0.656	9520
0.655	9524
0.654	9515
0.653	9517
0.652	9505
0.651	9480
0.65	9463
0.649	9454
0.648	9458
0.647	9445
0.646	9423
0.645	9391
0.644	9368
0.643	9361
0.642	9351
0.641	9350
0.64	9327
0.639	9292
0.638	9276
0.637	9263
0.636	9258
0.635	9255
0.634	9243
0.633	9204
0.632	9186
0.631	9192
0.63	9210
0.629	9181
0.628	9137
0.627	9119
0.626	9125
0.625	9137
0.624	9133
0.623	9094
0.622	9060
0.621	9054
0.62	9070
0.619	9045
0.618	9025
0.617	9005
0.617	8990
0.616	8967
0.614	8968
0.614	8977
0.613	8944
0.612	8919
0.611	8898
0.61	8889
0.609	8884
0.608	8879
0.607	8852
0.606	8846
0.605	8830
0.604	8805
0.603	8802
0.602	8813
0.601	8791
0.6	8753
0.599	8743
0.598	8752
0.597	8712
0.596	8677
0.595	8693
0.594	8690
0.593	8670
0.592	8637
0.591	8605
0.59	8585
0.589	8603
0.588	8592
0.587	8574
0.586	8520
0.585	8491
0.584	8506
0.583	8510
0.582	8479
0.581	8440
0.58	8448
0.579	8433
0.578	8410
0.577	8383
0.576	8380
0.575	8370
0.574	8361
0.573	8344
0.572	8283
0.571	8247
0.57	8239
0.569	8241
0.568	8227
0.567	8195
0.566	8167
0.565	8152
0.564	8127
0.563	8099
0.562	8064
0.561	8049
0.56	8027
0.559	8035
0.558	8016
0.557	7966
0.556	7928
0.555	7931
0.554	7918
0.553	7885
0.552	7860
0.551	7842
0.55	7818
0.549	7814
0.548	7799
0.547	7763
0.546	7716
0.545	7692
0.544	7678
0.543	7681
0.542	7639
0.541	7604
0.54	7582
0.539	7559
0.538	7544
0.537	7511
0.536	7478
0.535	7440
0.534	7417
0.533	7387
0.532	7364
0.531	7368
0.53	7332
0.529	7293
0.528	7261
0.527	7225
0.526	7221
0.525	7203
0.524	7161
0.523	7113
0.522	7085
0.521	7054
0.52	7030
0.519	6992
0.518	6936
0.517	6890
0.516	6863
0.515	6819
0.514	6774
0.513	6725
0.512	6691
0.511	6639
0.51	6583
0.509	6542
0.508	6493
0.507	6432
0.506	6385
0.505	6343
0.504	6285
0.503	6221
0.502	6159
0.501	6104
0.5	6039
0.499	5957
0.498	5881
0.497	5805
0.496	5713
0.496	5642
0.494	5582
0.493	5506
0.493	5411
0.492	5328
0.491	5259
0.49	5173
0.489	5086
0.488	5003
0.487	4928
0.486	4853
0.485	4767
0.484	4677
0.483	4607
0.482	4538
0.481	4455
0.48	4352
0.479	4270
0.478	4191
0.477	4111
0.476	4021
0.475	3944
0.474	3874
0.473	3788
0.472	3710
0.471	3654
0.47	3583
0.469	3497
0.468	3428
0.467	3363
0.466	3290
0.465	3232
0.464	3159
0.463	3083
0.462	3012
0.461	2949
0.46	2883
0.459	2829
0.458	2760
0.457	2697
0.456	2615
0.455	2545
0.454	2469
0.453	2385
0.452	2300
0.451	2229
0.45	2159
0.449	2092
0.448	2018
0.447	1947
0.446	1872
0.445	1805
0.444	1739
0.443	1676
0.442	1627
0.441	1575
0.44	1529
0.439	1473
0.438	1413
0.437	1364
0.436	1311
0.435	1267
0.434	1213
0.433	1151
0.432	1110
0.431	1076
0.43	1046
0.429	1012
0.428	972.7
0.427	936.2
0.426	894.2
0.425	843.2
0.424	804.5
0.423	750.8
0.422	702
0.421	669.5
0.42	626.5
0.419	590.2
0.418	554.6
0.417	519.3
0.416	485.1
0.415	461.8
0.414	436
0.413	406.1
0.412	381.7
0.411	350.7
0.41	318.7
0.409	291.1
0.408	267
0.407	248.6
0.406	232.6
0.405	219.7
0.404	200.9
0.403	190.7
0.402	180.8
0.401	174
0.4	170.8
0.399	169.9
0.398	169.3
0.397	168.7
0.396	168
0.395	167.3
0.394	166.7
0.393	166.1
0.392	164.9
0.391	164
0.39	162.4
0.389	161.5
0.388	160
0.387	159.3
0.386	157.5
0.385	156.3
0.384	155.7
0.383	155.2
0.382	154.4
0.381	152.4
0.38	150.7
0.379	149.4
0.378	147.2
0.377	142.7
0.376	139.2
0.376	135.1
0.374	132.9
0.373	131.8
0.373	130.4
0.372	127.9
0.371	123.8
0.369	122.2
0.369	119.5
0.368	117.7
0.367	117.5
0.366	116.9
0.365	116.3
0.364	116.2
0.363	115.7
0.362	115.4
0.361	114.1
0.36	113.6
0.359	112.1
0.358	110.7
0.357	110.5
0.356	110.4
0.355	110.3
0.354	110.1
0.353	109.8
0.352	109.5
0.351	109.2
0.35	109.2
0.349	108.9
0.348	107.2
0.347	106.1
0.346	104.3
0.345	103.6
0.344	103.5
0.343	103.2
0.342	103.1
0.341	102.7
0.34	101.6
0.339	100.6
0.338	100.6
0.337	100.5
0.336	100.4
0.335	100.3
0.334	100.3
0.333	100.3
0.332	100.2
0.331	100.1
0.33	100
0.329	99.88
0.328	99.74
0.327	99.8
0.326	99.8
0.325	99.7
0.324	99.49
0.323	99.05
0.322	98.16
0.321	97.68
0.32	97.72
0.319	97.86
0.318	97.84
0.317	97
0.316	95.7
0.315	94.19
0.314	93.63
0.313	93.17
0.312	92.61
0.311	91.6
0.31	89.93
0.309	88.83
0.308	88.58
0.307	88.02
0.306	87.15
0.305	86.39
0.304	85.31
0.303	83.9
0.302	82.8
0.301	81.82
0.3	81.06
0.299	79.89
0.298	76.46
0.297	75.65
0.296	74.8
0.295	74.2
0.294	73.62
0.293	72.52
0.292	70.54
0.291	65.31
0.29	64.75
0.289	64.46
0.288	63.85
0.287	61.33
0.286	61.13
0.285	60.53
0.284	59.6
0.283	57.8
0.282	57.44
0.281	56.22
0.28	56.14
0.279	56.06
0.278	55.8
0.277	55.62
0.276	55.49
0.275	55.22
0.274	54.55
0.273	54.61
0.272	54.66
0.271	54.51
0.27	54.21
0.269	54.25
0.268	54.13
0.267	53.85
0.266	53.34
0.265	51.17
0.264	50.34
0.263	50.28
0.262	50.18
0.261	50.07
0.26	49.98
0.259	49.89
0.258	49.82
0.257	49.79
0.256	49.7
0.256	49.56
0.254	49.35
0.253	49.25
0.252	49.16
0.252	48.99
0.251	48.72
0.249	47.79
0.249	47.18
0.248	45.91
0.247	45.49
0.246	45.09
0.245	44.08
0.244	43.75
0.243	42.81
0.242	40.97
0.241	40.8
0.24	40.69
0.239	40.57
0.238	40.51
0.237	40.46
0.236	40.4
0.235	40.45
0.234	40.26
0.233	39.93
0.232	39.82
0.231	39.75
0.23	39.68
0.229	39.63
0.228	38.84
0.227	38.22
0.226	37.8
0.225	37.42
0.224	36.36
0.223	35.87
0.222	35.84
0.221	35.82
0.22	35.77
0.219	35.67
0.218	35.36
0.217	35.08
0.216	34.86
0.215	34.55
0.214	34.22
0.213	33.81
0.212	32.71
0.211	32.16
0.21	31.67
0.209	30.95
0.208	29.91
0.207	28.72
0.206	28.73
0.205	28.77
0.204	28.71
0.203	28.29
0.202	27.25
0.201	26.01
0.2	25.54
0.199	25.24
0.198	24.99
0.197	24.51
0.196	23.43
0.195	21.89
0.194	20.75
0.193	20.19
0.192	19.51
0.191	17.32
0.19	16.67
0.189	16.3
0.188	15.77
0.187	14.43
0.186	13.2
0.185	12.97
0.184	12.8
0.183	12.73
0.182	12.67
0.181	12.55
0.18	12.32
0.181	12.68
0.182	13
0.183	13.13
0.184	12.99
0.185	12.65
0.186	12.2
0.187	12.3
0.188	12.29
0.189	12.56
